Run #1	Run #1
Time (s)	Voltage (V)
0.000	-0.005
0.050	0.005
0.100	0.000
0.150	-0.005
0.200	-0.005
0.250	0.000
0.300	0.010
0.350	-0.015
0.400	0.000
0.450	0.000
0.500	0.005
0.550	0.000
0.600	-0.005
0.650	-0.005
0.700	0.000
0.750	0.000
0.800	0.005
0.850	0.000
0.900	0.000
0.950	-0.005
1.000	0.000
1.050	0.000
1.100	0.000
1.150	-1.611
1.200	-0.093
1.250	0.000
1.300	0.000
1.350	0.000
1.400	0.000
1.450	-0.005
1.500	-0.015
1.550	0.005
1.600	0.000
1.650	0.000
1.700	0.000
1.750	0.000
1.800	0.000
1.850	0.000
1.900	0.000
1.950	0.000
2.000	0.000
2.050	0.000
2.100	0.000
2.150	0.000
2.200	0.000
2.250	0.000
2.300	0.000
2.350	0.000
2.400	0.000
2.450	0.000
2.500	0.000
2.550	0.000
2.600	0.000
2.650	0.000
2.700	0.000
2.750	0.000
2.800	0.000
2.850	0.000
2.900	0.000
2.950	0.000
3.000	0.000
3.050	0.000
3.100	0.000
3.150	0.000
3.200	0.000
3.250	0.000
3.300	0.000
3.350	0.000
3.400	0.000
3.450	0.000
3.500	0.000
3.550	0.000
3.600	0.000
3.650	0.000
3.700	0.000
3.750	-0.005
3.800	0.000
3.850	0.000
3.900	0.000
3.950	0.000
4.000	0.000
4.050	0.000
4.100	-0.010
4.150	0.020
4.200	0.078
4.250	0.068
4.300	-0.049
4.350	-0.010
4.400	-0.020
4.450	-0.010
4.500	0.000
4.550	0.000
4.600	0.000
4.650	0.000
4.700	0.000
4.750	0.000
4.800	0.005
4.850	0.000
4.900	0.005
4.950	0.005
5.000	0.000
5.050	0.000
5.100	0.000
5.150	0.000
5.200	0.000
5.250	0.000
5.300	0.000
5.350	-0.015
5.400	-0.010
5.450	-0.005
5.500	0.000
5.550	0.000
5.600	0.000
5.650	0.000
5.700	0.000
5.750	0.000
5.800	0.000
5.850	0.000
5.900	0.000
5.950	0.000
6.000	0.000
6.050	0.000
6.100	0.000
6.150	0.000
6.200	0.000
6.250	0.000
6.300	-0.005
6.350	0.000
6.400	0.000
6.450	0.000
6.500	0.000
6.550	0.000
6.600	0.000
6.650	0.000
6.700	0.000
6.750	0.000
6.800	0.000
6.850	0.000
6.900	0.000
6.950	0.000
7.000	0.000
7.050	0.000
7.100	0.000
7.150	0.000
7.200	0.000
7.250	0.000
7.300	0.000
7.350	0.000
7.400	0.000
7.450	0.000
7.500	0.000
7.550	0.000
7.600	-0.005
7.650	0.000
7.700	0.005
7.750	0.000
7.800	0.005
7.850	0.000
7.900	0.000
7.950	0.000
8.000	0.000
8.050	0.000
8.100	0.000
8.150	0.000
8.200	0.000
8.250	0.000
8.300	-0.044
8.350	0.020
8.400	0.000
8.450	0.000
8.500	0.000
8.550	-0.005
8.600	-0.005
8.650	-0.005
8.700	0.000
8.750	0.000
8.800	0.005
8.850	0.000
8.900	0.000
8.950	0.000
9.000	0.000
9.050	0.000
9.100	0.000
9.150	0.000
9.200	0.000
9.250	0.000
9.300	0.000
9.350	0.000
9.400	0.000
9.450	0.000
9.500	0.000
9.550	0.000
9.600	0.000
9.650	0.000
9.700	0.000
9.750	0.000
9.800	0.000
9.850	-0.015
9.900	0.000
9.950	0.000
10.000	0.000
10.050	0.005
10.100	0.000
10.150	0.000
10.200	-0.010
10.250	-0.010
10.300	0.000
10.350	0.010
10.400	-0.015
10.450	0.029
10.500	-0.146
10.550	-0.845
10.600	0.684
10.650	0.059
10.700	0.088
10.750	0.688
10.800	-0.015
10.850	0.000
10.900	-0.010
10.950	-0.054
11.000	0.083
11.050	1.372
11.100	-0.537
11.150	0.049
11.200	0.039
11.250	-0.054
11.300	0.137
11.350	0.005
11.400	0.005
11.450	0.000
11.500	0.015
11.550	-0.015
11.600	0.000
11.650	0.903
11.700	-0.356
11.750	0.039
11.800	0.059
11.850	0.010
11.900	0.396
11.950	0.010
12.000	0.010
12.050	0.000
12.100	-0.068
12.150	-1.504
12.200	0.098
12.250	0.488
12.300	0.151
12.350	0.088
12.400	0.034
12.450	-6.460
12.500	0.073
12.550	0.005
12.600	0.000
12.650	-0.039
12.700	0.088
12.750	0.288
12.800	-0.151
12.850	0.005
12.900	-0.093
12.950	-0.093
13.000	-0.044
13.050	0.220
13.100	0.010
13.150	0.005
13.200	-0.005
13.250	-0.107
13.300	0.195
13.350	0.381
13.400	0.078
13.450	-0.117
13.500	0.073
13.550	0.063
13.600	1.753
13.650	0.005
13.700	0.000
13.750	0.000
13.800	-0.020
13.850	-0.015
13.900	0.000
13.950	0.000
14.000	0.000
14.050	-0.005
14.100	0.000
14.150	-0.005
14.200	0.000
14.250	0.024
14.300	0.435
14.350	0.059
14.400	0.171
14.450	0.137
14.500	0.083
14.550	0.044
14.600	0.010
14.650	-0.010
14.700	-0.010
14.750	-0.005
14.800	0.000
14.850	-0.015
14.900	-0.010
14.950	-0.010
15.000	0.000
15.050	-0.005
15.100	0.000
15.150	0.000
15.200	0.000
15.250	0.000
15.300	0.000
15.350	0.000
15.400	0.000
15.450	-0.005
15.500	0.000
15.550	-0.010
15.600	-0.015
15.650	0.000
15.700	0.005
15.750	0.000
15.800	0.000
15.850	0.000
15.900	0.000
15.950	0.000
16.000	0.000
16.050	0.005
16.100	0.000
16.150	0.000
16.200	0.000
16.250	0.000
16.300	0.005
16.350	0.000
16.400	0.010
16.450	0.005
16.500	0.015
16.550	0.010
16.600	0.020
16.650	0.024
16.700	0.010
16.750	0.015
16.800	-0.005
16.850	-0.005
16.900	0.015
16.950	0.010
17.000	0.024
17.050	-0.049
17.100	0.020
17.150	0.049
17.200	0.000
17.250	0.020
17.300	-0.020
17.350	-0.015
17.400	0.005
17.450	0.015
17.500	-0.010
17.550	-0.010
17.600	-0.010
17.650	0.000
17.700	0.020
17.750	0.020
17.800	0.015
17.850	0.015
17.900	-0.034
17.950	-0.015
18.000	0.049
18.050	0.010
18.100	-0.020
18.150	-0.039
18.200	0.005
18.250	-0.005
18.300	-0.029
18.350	-0.044
18.400	-0.029
18.450	0.005
18.500	0.000
18.550	0.005
18.600	0.000
18.650	0.005
18.700	0.015
18.750	0.107
18.800	-0.049
18.850	0.034
18.900	0.020
18.950	0.005
19.000	-0.015
19.050	-0.020
19.100	0.000
19.150	0.020
19.200	-0.005
19.250	0.000
19.300	0.000
19.350	0.000
19.400	0.000
19.450	0.000
19.500	0.000
19.550	0.000
19.600	0.000
19.650	0.000
19.700	0.000
19.750	0.000
19.800	0.000
19.850	-0.005
19.900	0.000
19.950	0.000
20.000	0.005
20.050	0.000
20.100	0.005
20.150	0.000
20.200	0.000
20.250	-0.005
20.300	-0.005
20.350	0.000
20.400	0.000
20.450	0.005
20.500	0.024
20.550	0.005
20.600	-0.010
20.650	-0.029
20.700	0.000
20.750	0.000
20.800	0.024
20.850	0.015
20.900	0.015
20.950	-0.024
21.000	0.010
21.050	-0.005
21.100	0.005
21.150	0.000
21.200	-0.005
21.250	0.000
21.300	-0.010
21.350	0.000
21.400	-0.005
21.450	0.000
21.500	-0.005
21.550	-0.010
21.600	0.000
21.650	0.015
21.700	-0.005
21.750	0.005
21.800	0.005
21.850	0.005
21.900	0.000
21.950	0.010
22.000	0.015
22.050	0.005
22.100	-0.005
22.150	-0.010
22.200	0.020
22.250	-0.010
22.300	-0.005
22.350	-0.010
22.400	-0.005
22.450	0.000
22.500	0.010
22.550	0.000
22.600	0.103
22.650	-0.034
22.700	-0.015
22.750	-0.010
22.800	0.000
22.850	-0.015
22.900	-0.010
22.950	0.005
23.000	0.005
23.050	0.000
23.100	0.000
23.150	0.005
23.200	0.000
23.250	0.005
23.300	-0.010
23.350	-0.005
23.400	-0.005
23.450	-0.010
23.500	0.000
23.550	-0.020
23.600	0.005
23.650	-0.005
23.700	0.005
23.750	0.000
23.800	0.000
23.850	0.000
23.900	0.000
23.950	0.000
24.000	0.000
24.050	0.000
24.100	-0.005
24.150	-0.005
24.200	0.000
24.250	0.000
24.300	0.000
24.350	0.000
24.400	0.000
24.450	0.000
24.500	0.000
24.550	0.000
24.600	-0.005
24.650	0.000
24.700	0.000
24.750	0.000
24.800	-0.005
24.850	0.000
24.900	0.000
24.950	0.000
25.000	0.000
25.050	0.044
25.100	-0.020
25.150	-0.015
25.200	-0.234
25.250	0.063
25.300	0.068
25.350	0.000
25.400	0.000
25.450	-0.049
25.500	-0.015
25.550	0.000
25.600	0.005
25.650	0.034
25.700	0.010
25.750	0.000
25.800	0.000
25.850	0.000
25.900	0.000
25.950	0.020
26.000	-0.015
26.050	0.000
26.100	0.000
26.150	0.005
26.200	0.000
26.250	-0.024
26.300	-0.010
26.350	-0.010
26.400	-0.005
26.450	-0.005
26.500	0.005
26.550	0.020
26.600	0.015
26.650	0.005
26.700	0.015
26.750	0.039
26.800	0.024
26.850	-0.010
26.900	0.000
26.950	-0.024
27.000	0.029
27.050	0.010
27.100	0.000
27.150	-0.005
27.200	0.000
27.250	0.005
27.300	-0.010
27.350	0.000
27.400	0.000
27.450	-0.054
27.500	-0.103
27.550	-0.005
27.600	0.029
27.650	0.059
27.700	0.010
27.750	-0.054
27.800	-0.015
27.850	-0.020
27.900	-0.015
27.950	-0.039
28.000	-0.020
28.050	-0.024
28.100	-0.015
28.150	-0.024
28.200	-0.049
28.250	-0.088
28.300	-0.054
28.350	-0.020
28.400	0.010
28.450	0.015
28.500	0.024
28.550	0.059
28.600	0.088
28.650	0.010
28.700	-0.010
28.750	0.000
28.800	0.005
28.850	0.029
28.900	-0.039
28.950	-0.015
29.000	-0.015
29.050	0.015
29.100	0.024
29.150	-0.049
29.200	-0.034
29.250	-0.039
29.300	0.005
29.350	0.059
29.400	0.054
29.450	0.034
29.500	0.010
29.550	-0.005
29.600	-0.010
29.650	-0.010
29.700	0.000
29.750	0.000
29.800	0.000
29.850	0.005
29.900	0.000
29.950	0.000
30.000	-0.005
30.050	0.000
30.100	0.000
30.150	0.000
30.200	0.000
30.250	0.000
30.300	0.005
30.350	0.000
30.400	0.000
30.450	0.000
30.500	0.156
30.550	-0.010
30.600	0.005
30.650	0.000
30.700	-0.015
30.750	-0.029
30.800	0.098
30.850	0.391
30.900	0.234
30.950	0.117
31.000	0.112
31.050	0.059
31.100	-0.303
31.150	-0.010
31.200	0.000
31.250	0.000
31.300	-0.015
31.350	-0.059
31.400	0.029
31.450	1.626
31.500	-0.078
31.550	0.122
31.600	-0.122
31.650	-0.049
31.700	3.667
31.750	-0.034
31.800	-0.005
31.850	0.000
31.900	-0.010
31.950	0.093
32.000	-1.138
32.050	-0.205
32.100	0.068
32.150	0.239
32.200	0.137
32.250	0.059
32.300	-0.425
32.350	0.029
32.400	0.000
32.450	-0.015
32.500	-0.010
32.550	0.190
32.600	-1.045
32.650	-0.781
32.700	-0.093
32.750	0.044
32.800	0.063
32.850	0.020
32.900	-0.073
32.950	-0.010
33.000	-0.015
33.050	-0.005
33.100	-0.342
33.150	-0.972
33.200	-0.293
33.250	0.415
33.300	-0.039
33.350	0.098
33.400	0.054
33.450	-8.384
33.500	-0.078
33.550	0.005
33.600	-0.015
33.650	0.000
33.700	-0.127
33.750	-0.977
33.800	-0.576
33.850	0.469
33.900	-0.049
33.950	0.054
34.000	0.044
34.050	0.171
34.100	0.063
34.150	0.000
34.200	-0.024
34.250	-0.010
34.300	0.083
34.350	0.171
34.400	-0.581
34.450	-0.039
34.500	-0.107
34.550	-0.039
34.600	-0.010
34.650	-0.464
34.700	-0.015
34.750	0.015
34.800	-0.005
34.850	-0.059
34.900	0.029
34.950	0.425
35.000	-0.049
35.050	-0.132
35.100	-0.181
35.150	-0.107
35.200	-0.073
35.250	0.020
35.300	-0.044
35.350	0.000
35.400	-0.010
35.450	-0.039
35.500	0.459
35.550	0.015
35.600	-0.371
35.650	-0.112
35.700	-0.107
35.750	-0.044
35.800	-0.005
35.850	0.112
35.900	-0.010
35.950	-0.010
36.000	-0.010
36.050	-0.020
36.100	-0.078
36.150	0.142
36.200	0.103
36.250	-0.039
36.300	0.005
36.350	0.000
36.400	0.020
36.450	0.020
36.500	0.010
36.550	-0.010
36.600	-0.010
36.650	-0.010
36.700	0.000
36.750	0.005
36.800	0.005
36.850	0.000
36.900	0.000
36.950	0.000
37.000	0.000
37.050	0.000
37.100	0.000
37.150	-0.005
37.200	-0.005
37.250	0.000
37.300	0.000
37.350	-0.005
37.400	-0.010
37.450	0.005
37.500	0.005
37.550	0.005
37.600	0.000
37.650	0.000
37.700	0.000
37.750	-0.015
37.800	-0.093
37.850	-0.054
37.900	0.288
37.950	-0.059
38.000	-0.034
38.050	0.000
38.100	0.005
38.150	0.005
38.200	0.000
38.250	0.000
38.300	0.000
38.350	0.000
38.400	0.000
38.450	-0.005
38.500	0.000
38.550	0.000
38.600	0.000
38.650	0.000
38.700	-0.005
38.750	0.000
38.800	-0.044
38.850	0.000
38.900	0.000
38.950	0.000
39.000	0.000
39.050	0.005
39.100	0.010
39.150	-0.015
39.200	-0.015
39.250	0.000
39.300	0.000
39.350	0.000
39.400	-0.010
39.450	0.010
39.500	0.029
39.550	0.000
39.600	-0.010
39.650	-0.005
39.700	0.020
39.750	0.000
39.800	0.000
39.850	-0.010
39.900	0.000
39.950	0.000
40.000	0.000
40.050	0.000
40.100	-0.010
40.150	-0.020
40.200	-0.010
40.250	-0.020
40.300	-0.020
40.350	0.010
40.400	0.010
40.450	0.005
40.500	-0.015
40.550	0.000
40.600	0.020
40.650	-0.005
40.700	0.029
40.750	0.044
40.800	-0.005
40.850	0.005
40.900	0.024
40.950	0.010
41.000	-0.005
41.050	0.005
41.100	0.000
41.150	0.000
41.200	0.000
41.250	0.000
41.300	0.000
41.350	0.005
41.400	0.000
41.450	0.005
41.500	0.005
41.550	-0.015
41.600	0.000
41.650	0.000
41.700	0.000
41.750	0.000
41.800	0.000
41.850	0.000
41.900	0.000
41.950	-0.005
42.000	0.000
42.050	0.000
42.100	0.000
42.150	0.000
42.200	0.000
42.250	0.000
42.300	0.000
42.350	0.005
42.400	0.000
42.450	0.000
42.500	-0.010
42.550	0.000
42.600	0.000
42.650	0.000
42.700	0.000
42.750	0.000
42.800	0.000
42.850	0.000
42.900	0.000
42.950	0.000
43.000	0.000
43.050	0.005
43.100	0.005
43.150	-0.005
43.200	-0.005
43.250	-0.010
43.300	0.005
43.350	0.005
43.400	0.005
43.450	-0.015
43.500	-0.005
43.550	0.000
43.600	-0.010
43.650	0.000
43.700	0.020
43.750	-0.005
43.800	0.005
43.850	0.000
43.900	0.005
43.950	0.000
44.000	0.000
44.050	0.000
44.100	0.000
44.150	-0.010
44.200	0.000
44.250	0.000
44.300	0.000
44.350	0.000
44.400	-0.005
44.450	-0.005
44.500	0.000
44.550	0.000
44.600	0.000
44.650	-0.005
44.700	-0.010
44.750	0.000
44.800	0.000
44.850	0.000
44.900	-0.005
44.950	0.000
45.000	-0.005
45.050	-0.005
45.100	-0.015
45.150	-0.029
45.200	-0.039
45.250	-0.010
45.300	0.015
45.350	0.049
45.400	0.000
45.450	-0.005
45.500	-0.020
45.550	0.005
45.600	0.000
45.650	0.000
45.700	0.000
45.750	0.000
45.800	0.000
45.850	0.000
45.900	0.000
45.950	0.000
46.000	0.020
46.050	0.020
46.100	0.000
46.150	0.000
46.200	0.000
46.250	0.000
46.300	0.000
46.350	-0.005
46.400	-0.020
46.450	0.005
46.500	-0.005
46.550	-0.010
46.600	0.000
46.650	0.000
46.700	0.000
46.750	0.000
46.800	0.000
46.850	0.000
46.900	0.000
46.950	0.000
47.000	0.000
47.050	0.000
47.100	0.000
47.150	0.000
47.200	0.000
47.250	0.000
47.300	-0.005
47.350	-0.005
47.400	0.000
47.450	0.010
47.500	-0.005
47.550	-0.010
47.600	0.000
47.650	0.000
47.700	-0.005
47.750	0.000
47.800	0.000
47.850	0.020
47.900	0.005
47.950	0.000
48.000	0.005
48.050	0.015
48.100	0.000
48.150	0.000
48.200	0.000
48.250	0.000
48.300	0.000
48.350	0.000
48.400	-0.005
48.450	0.000
48.500	0.000
48.550	0.000
48.600	0.000
48.650	0.000
48.700	-0.005
48.750	-0.015
48.800	0.000
48.850	-0.010
48.900	0.000
48.950	-0.005
49.000	0.000
49.050	-0.005
49.100	-0.005
49.150	0.000
49.200	0.005
49.250	0.000
49.300	0.000
49.350	0.005
49.400	0.000
49.450	0.000
49.500	0.000
49.550	-0.005
49.600	-0.005
49.650	0.005
49.700	0.005
49.750	-0.005
49.800	-0.010
49.850	0.000
49.900	0.000
49.950	0.000
50.000	0.000
50.050	0.015
50.100	0.000
50.150	0.000
50.200	0.000
50.250	0.000
50.300	0.000
50.350	0.000
50.400	0.000
50.450	0.000
50.500	0.000
50.550	0.005
50.600	0.000
50.650	0.010
50.700	0.010
50.750	0.024
50.800	0.015
50.850	0.010
50.900	0.015
50.950	0.000
51.000	0.015
51.050	0.010
51.100	0.000
51.150	0.005
51.200	0.005
51.250	0.005
51.300	0.000
51.350	0.005
51.400	-0.010
51.450	0.000
51.500	0.005
51.550	0.000
51.600	-0.005
51.650	-0.020
51.700	-0.020
51.750	-0.039
51.800	-0.034
51.850	-0.010
51.900	-0.010
51.950	0.029
52.000	0.024
52.050	0.005
52.100	0.010
52.150	0.024
52.200	0.293
52.250	0.107
52.300	-0.005
52.350	-0.088
52.400	-0.015
52.450	-0.015
52.500	0.010
52.550	-0.024
52.600	-0.005
52.650	-0.044
52.700	-0.020
52.750	0.020
52.800	0.024
52.850	0.010
52.900	0.010
52.950	-0.010
53.000	0.000
53.050	-0.010
53.100	0.034
53.150	-0.015
53.200	-0.005
53.250	0.005
53.300	0.010
53.350	0.000
53.400	0.000
53.450	0.000
53.500	0.000
53.550	0.000
53.600	0.000
53.650	0.000
53.700	0.000
53.750	0.000
53.800	0.005
53.850	0.000
53.900	0.000
53.950	0.000
54.000	-0.024
54.050	-0.005
54.100	0.000
54.150	-0.005
54.200	0.000
54.250	0.000
54.300	-0.005
54.350	0.005
54.400	0.005
54.450	0.005
54.500	-0.005
54.550	-0.005
54.600	-0.005
54.650	-0.005
54.700	0.000
54.750	0.000
54.800	0.000
54.850	0.000
54.900	0.000
54.950	-0.005
55.000	0.000
55.050	-0.005
55.100	0.000
55.150	0.005
55.200	0.000
55.250	-0.005
55.300	0.000
55.350	0.000
55.400	0.000
55.450	0.000
55.500	0.000
55.550	3.047
55.600	-0.073
55.650	0.000
55.700	0.015
55.750	0.005
55.800	0.005
55.850	0.005
55.900	0.718
55.950	0.767
56.000	-0.249
56.050	-0.059
56.100	0.112
56.150	0.034
56.200	-0.078
56.250	0.000
56.300	-0.005
56.350	0.000
56.400	0.000
56.450	-0.112
56.500	0.044
56.550	0.396
56.600	-0.547
56.650	0.044
56.700	0.054
56.750	-0.171
56.800	-0.015
56.850	-0.005
56.900	-0.005
56.950	-0.010
57.000	0.005
57.050	0.142
57.100	0.103
57.150	0.029
57.200	-0.005
57.250	-0.020
57.300	-0.015
57.350	0.039
57.400	-0.005
57.450	-0.005
57.500	0.005
57.550	0.000
57.600	0.024
57.650	0.171
57.700	0.068
57.750	0.005
57.800	-0.020
57.850	-0.010
57.900	0.000
57.950	0.044
58.000	0.005
58.050	0.000
58.100	0.000
58.150	0.020
58.200	0.029
58.250	0.137
58.300	-0.112
58.350	0.078
58.400	-0.039
58.450	0.005
58.500	0.005
58.550	0.054
58.600	0.005
58.650	0.000
58.700	0.005
58.750	0.015
58.800	0.039
58.850	-0.449
58.900	0.430
58.950	0.054
59.000	-0.068
59.050	0.015
59.100	-2.827
59.150	0.020
59.200	0.000
59.250	0.005
59.300	0.010
59.350	0.015
59.400	0.415
59.450	-0.122
59.500	0.088
59.550	-0.034
59.600	0.005
59.650	0.010
59.700	0.024
59.750	-0.020
59.800	0.000
59.850	0.000
59.900	0.000
59.950	0.005
60.000	0.005
60.050	0.039
60.100	-0.054
60.150	-0.015
60.200	0.000
60.250	0.000
60.300	0.000
60.350	0.000
60.400	0.000
60.450	0.000
60.500	0.000
60.550	0.000
60.600	0.000
60.650	0.000
60.700	0.000
60.750	0.000
60.800	0.000
60.850	0.000
60.900	0.000
60.950	0.000
61.000	0.000
61.050	0.000
61.100	0.000
61.150	0.000
61.200	0.000
61.250	0.000
61.300	0.000
61.350	0.000
61.400	0.000
61.450	0.000
61.500	0.000
61.550	0.000
61.600	0.000
61.650	0.000
61.700	0.000
61.750	0.000
61.800	0.000
61.850	0.000
61.900	0.000
61.950	0.000
62.000	0.000
62.050	0.000
62.100	0.005
62.150	0.000
62.200	0.000
62.250	0.000
62.300	0.000
62.350	0.000
62.400	0.000
62.450	0.000
62.500	0.000
62.550	0.000
62.600	0.000
62.650	0.005
62.700	0.015
62.750	0.093
62.800	0.093
62.850	0.000
62.900	0.000
62.950	0.000
63.000	0.000
63.050	0.000
63.100	0.000
63.150	0.000
63.200	0.000
63.250	0.000
63.300	0.000
63.350	0.000
63.400	0.000
63.450	0.000
63.500	0.000
63.550	0.000
63.600	0.000
63.650	0.000
63.700	0.000
63.750	0.000
63.800	0.000
63.850	-0.005
63.900	-0.010
63.950	0.000
64.000	0.000
64.050	0.000
64.100	0.000
64.150	0.000
64.200	0.000
64.250	0.000
64.300	0.000
64.350	0.000
64.400	0.000
64.450	0.000
64.500	0.000
64.550	0.000
64.600	0.000
64.650	0.000
64.700	0.000
64.750	0.000
64.800	0.000
64.850	0.000
64.900	0.000
64.950	0.000
65.000	-0.005
65.050	0.000
65.100	0.000
65.150	0.000
65.200	0.000
65.250	0.000
65.300	0.000
65.350	0.000
65.400	0.000
65.450	0.000
65.500	0.000
65.550	0.000
65.600	0.000
65.650	0.000
65.700	0.000
65.750	0.000
65.800	0.000
65.850	0.000
65.900	0.000
65.950	0.000
66.000	0.000
66.050	0.000
66.100	0.000
66.150	0.000
66.200	0.000
66.250	0.000
66.300	0.000
66.350	0.000
66.400	0.000
66.450	0.000
66.500	0.000
66.550	0.000
66.600	0.000
66.650	0.000
66.700	0.000
66.750	0.024
66.800	0.005
66.850	0.000
66.900	0.000
66.950	0.000
67.000	0.000
67.050	-0.005
67.100	0.000
67.150	0.000
67.200	0.000
67.250	0.000
67.300	0.000
67.350	0.000
67.400	0.000
67.450	0.000
67.500	0.000
67.550	0.000
67.600	0.000
67.650	0.005
67.700	0.000
67.750	0.000
67.800	0.000
67.850	0.000
67.900	0.000
67.950	0.000
68.000	0.005
68.050	0.000
68.100	0.000
68.150	0.000
68.200	0.000
68.250	0.000
68.300	0.000
68.350	0.000
68.400	0.000
68.450	0.000
68.500	0.000
68.550	0.000
68.600	0.000
68.650	0.000
68.700	0.000
68.750	0.000
68.800	0.000
68.850	0.000
68.900	0.000
68.950	0.000
69.000	0.000
69.050	0.000
69.100	0.000
69.150	0.000
69.200	0.000
69.250	0.000
69.300	0.000
69.350	0.000
69.400	0.000
69.450	0.000
69.500	0.000
69.550	0.000
69.600	0.000
69.650	0.000
69.700	0.000
69.750	0.000
69.800	0.000
69.850	0.000
69.900	0.000
69.950	0.000
70.000	0.000
70.050	0.000
70.100	0.000
70.150	0.000
70.200	0.000
70.250	0.000
70.300	0.000
70.350	0.000
70.400	0.000
70.450	0.000
70.500	0.000
70.550	0.000
70.600	0.000
70.650	0.000
70.700	0.000
70.750	0.000
70.800	0.000
70.850	0.000
70.900	0.000
70.950	0.000
71.000	0.000
71.050	0.000
71.100	0.000
71.150	0.000
71.200	0.000
71.250	0.000
71.300	0.000
71.350	0.000
71.400	0.000
71.450	0.000
71.500	0.000
71.550	0.000
71.600	0.000
71.650	0.000
71.700	0.000
71.750	0.000
71.800	0.000
71.850	0.000
71.900	0.000
71.950	0.000
72.000	0.000
72.050	0.000
72.100	0.000
72.150	0.000
72.200	0.000
72.250	0.000
72.300	0.000
72.350	0.000
72.400	0.000
72.450	0.000
72.500	0.000
72.550	0.000
72.600	0.000
72.650	0.000
72.700	0.000
72.750	-0.005
72.800	0.000
72.850	0.000
72.900	0.000
72.950	0.000
73.000	0.000
73.050	0.000
73.100	0.000
73.150	0.000
73.200	0.000
73.250	0.000
73.300	0.000
73.350	0.000
73.400	0.000
73.450	0.000
73.500	0.000
73.550	0.000
73.600	0.000
73.650	0.000
73.700	0.000
73.750	0.000
73.800	0.000
73.850	0.000
73.900	-0.005
73.950	0.000
74.000	0.000
74.050	0.000
74.100	0.000
74.150	-0.005
74.200	-0.005
74.250	-0.010
74.300	0.000
74.350	0.005
74.400	0.000
74.450	0.000
74.500	0.000
74.550	0.000
74.600	0.000
74.650	0.000
74.700	0.000
74.750	0.000
74.800	0.005
74.850	-0.005
74.900	0.000
74.950	0.000
75.000	0.000
75.050	0.000
75.100	-0.005
75.150	0.000
75.200	0.000
75.250	0.000
75.300	0.000
75.350	0.000
75.400	0.000
75.450	0.000
75.500	0.000
75.550	0.000
75.600	0.000
75.650	0.000
75.700	0.000
75.750	0.000
75.800	0.000
75.850	0.000
75.900	-0.005
75.950	0.000
76.000	0.000
76.050	0.000
76.100	-0.005
76.150	-0.005
76.200	0.000
76.250	0.000
76.300	0.000
76.350	0.000
76.400	0.000
76.450	0.000
76.500	0.000
76.550	-0.005
76.600	0.000
76.650	0.000
76.700	0.000
76.750	0.000
76.800	0.000
76.850	-0.005
76.900	0.000
76.950	-0.005
77.000	-0.005
77.050	0.000
77.100	0.000
77.150	0.000
77.200	0.000
77.250	0.000
77.300	0.000
77.350	0.000
77.400	0.000
77.450	0.000
77.500	-0.005
77.550	0.000
77.600	0.000
77.650	0.000
77.700	0.000
77.750	0.000
77.800	0.000
77.850	0.000
77.900	0.000
77.950	0.000
78.000	0.000
78.050	0.000
78.100	0.000
78.150	-0.010
78.200	-0.005
78.250	-0.005
78.300	-0.005
78.350	-0.005
78.400	0.000
78.450	0.000
78.500	0.000
78.550	0.000
78.600	0.000
78.650	0.000
78.700	0.000
78.750	0.000
78.800	0.000
78.850	0.000
78.900	0.000
78.950	0.000
79.000	0.000
79.050	0.000
79.100	0.000
79.150	0.000
79.200	0.000
79.250	0.000
79.300	0.000
79.350	0.000
79.400	0.000
79.450	0.000
79.500	0.000
79.550	0.000
79.600	0.000
79.650	0.000
79.700	0.000
79.750	0.000
79.800	0.000
79.850	0.000
79.900	0.000
79.950	0.000
80.000	0.000
80.050	0.000
80.100	0.000
80.150	0.000
80.200	0.000
80.250	0.000
80.300	0.000
80.350	0.000
80.400	0.000
80.450	0.000
80.500	0.000
80.550	0.000
80.600	0.000
80.650	0.000
80.700	0.000
80.750	-0.005
80.800	0.000
80.850	0.000
80.900	0.000
80.950	0.000
81.000	0.000
81.050	0.000
81.100	0.000
81.150	0.000
81.200	0.000
81.250	0.005
81.300	0.000
81.350	0.000
81.400	0.000
81.450	0.000
81.500	0.000
81.550	0.000
81.600	0.000
81.650	-0.005
81.700	0.000
81.750	0.000
81.800	0.000
81.850	0.000
81.900	0.000
81.950	0.000
82.000	0.000
82.050	0.000
82.100	0.000
82.150	0.000
82.200	0.000
82.250	0.000
82.300	0.000
82.350	0.000
82.400	-0.005
82.450	0.000
82.500	0.000
82.550	0.000
82.600	0.000
82.650	0.000
82.700	0.000
82.750	0.000
82.800	0.000
82.850	0.000
82.900	0.000
82.950	0.000
83.000	0.000
83.050	0.000
83.100	0.005
83.150	0.005
83.200	0.000
83.250	0.000
83.300	0.000
83.350	0.000
83.400	0.000
83.450	0.000
83.500	0.000
83.550	0.000
83.600	0.000
83.650	0.000
83.700	0.000
83.750	0.000
83.800	0.000
83.850	0.000
83.900	0.000
83.950	0.000
84.000	0.000
84.050	0.000
84.100	0.000
84.150	0.000
84.200	0.000
84.250	0.000
84.300	0.000
84.350	0.000
84.400	0.000
84.450	0.000
84.500	0.000
84.550	0.000
84.600	0.000
84.650	0.000
84.700	0.000
84.750	0.000
84.800	0.000
84.850	0.000
84.900	0.000
84.950	0.000
85.000	0.000
85.050	0.000
85.100	0.000
85.150	0.000
85.200	0.000
85.250	0.000
85.300	0.000
85.350	0.000
85.400	0.000
85.450	0.000
85.500	0.000
85.550	0.000
85.600	0.000
85.650	0.000
85.700	0.000
85.750	0.000
85.800	0.000
85.850	0.000
85.900	0.000
85.950	0.000
86.000	0.000
86.050	0.000
86.100	0.000
86.150	0.000
86.200	0.000
86.250	0.000
86.300	0.000
86.350	0.000
86.400	0.000
86.450	0.000
86.500	0.000
86.550	0.000
86.600	0.000
86.650	0.000
86.700	0.000
86.750	0.000
86.800	0.000
86.850	0.000
86.900	0.000
86.950	0.000
87.000	0.000
87.050	0.000
87.100	0.000
87.150	0.000
87.200	0.000
87.250	0.000
87.300	0.000
87.350	0.000
87.400	0.000
87.450	0.000
87.500	0.000
87.550	0.000
87.600	0.000
87.650	0.000
87.700	0.000
87.750	-0.005
87.800	0.000
87.850	0.000
87.900	0.000
87.950	0.000
88.000	0.000
88.050	0.000
88.100	0.000
88.150	0.000
88.200	0.000
88.250	0.000
88.300	0.000
88.350	0.000
88.400	-0.010
88.450	0.000
88.500	0.000
88.550	-0.171
88.600	0.010
88.650	-0.029
88.700	-0.005
88.750	0.000
88.800	0.000
88.850	0.000
88.900	0.000
88.950	0.005
89.000	0.005
89.050	-0.044
89.100	-0.010
89.150	0.000
89.200	0.000
89.250	0.195
89.300	0.474
89.350	-0.244
89.400	-0.020
89.450	0.010
89.500	-0.010
89.550	-0.215
89.600	0.010
89.650	-0.010
89.700	0.000
89.750	0.005
89.800	1.260
89.850	0.034
89.900	-0.127
89.950	-0.156
90.000	-0.107
90.050	-0.059
90.100	-0.034
90.150	-0.107
90.200	-0.005
90.250	0.010
90.300	0.010
90.350	0.195
90.400	-0.371
90.450	-0.264
90.500	0.425
90.550	0.083
90.600	0.024
90.650	0.151
90.700	-0.029
90.750	-0.015
90.800	0.000
90.850	-0.005
90.900	0.063
90.950	-0.449
91.000	-0.264
91.050	-0.073
91.100	-0.068
91.150	-0.039
91.200	-0.015
91.250	-0.005
91.300	-0.059
91.350	0.005
91.400	0.000
91.450	0.210
91.500	-1.079
91.550	-0.200
91.600	0.020
91.650	0.103
91.700	0.063
91.750	0.010
91.800	0.068
91.850	0.020
91.900	-0.010
91.950	0.000
92.000	0.020
92.050	1.108
92.100	0.093
92.150	-0.210
92.200	-0.059
92.250	-0.029
92.300	-0.020
92.350	-1.416
92.400	0.024
92.450	0.000
92.500	0.010
92.550	0.015
92.600	-0.020
92.650	-0.381
92.700	-0.083
92.750	-0.098
92.800	-0.029
92.850	-0.010
92.900	0.264
92.950	0.000
93.000	-0.010
93.050	0.000
93.100	0.005
93.150	0.474
93.200	-0.127
93.250	0.029
93.300	0.005
93.350	-0.010
93.400	-0.020
93.450	0.054
93.500	0.005
93.550	0.000
93.600	0.000
93.650	0.000
93.700	0.010
93.750	0.000
93.800	0.000
93.850	0.000
93.900	0.000
93.950	0.000
94.000	0.000
94.050	0.000
94.100	0.000
94.150	0.000
94.200	0.000
94.250	0.000
94.300	0.000
94.350	0.000
94.400	0.000
94.450	0.000
94.500	0.000
94.550	0.000
94.600	0.000
94.650	0.000
94.700	0.000
94.750	0.000
94.800	0.000
94.850	0.000
94.900	0.000
94.950	0.000
95.000	0.000
95.050	0.000
95.100	0.000
95.150	0.000
95.200	0.000
95.250	0.000
95.300	0.000
95.350	0.000
95.400	0.000
95.450	0.000
95.500	0.000
95.550	0.000
95.600	0.000
95.650	0.000
95.700	0.000
95.750	0.000
95.800	0.000
95.850	0.000
95.900	0.000
95.950	0.000
96.000	0.000
96.050	0.000
96.100	0.000
96.150	0.000
96.200	0.000
96.250	0.000
96.300	0.000
96.350	0.000
96.400	0.000
96.450	0.000
96.500	0.000
96.550	0.000
96.600	0.000
96.650	0.000
96.700	0.000
96.750	0.000
96.800	0.000
96.850	0.000
96.900	0.000
96.950	0.000
97.000	0.000
97.050	0.000
97.100	0.000
97.150	0.000
97.200	0.000
97.250	0.000
97.300	0.000
97.350	0.000
97.400	0.000
97.450	0.000
97.500	0.000
97.550	0.000
97.600	0.000
97.650	0.000
97.700	0.000
97.750	0.000
97.800	0.000
97.850	0.000
97.900	0.000
97.950	0.000
98.000	0.000
98.050	0.000
98.100	0.000
98.150	0.000
98.200	0.000
98.250	0.000
98.300	0.000
98.350	0.000
98.400	0.000
98.450	0.000
98.500	0.000
98.550	0.000
98.600	0.000
98.650	0.000
98.700	0.000
98.750	0.000
98.800	0.000
98.850	0.000
98.900	0.000
98.950	0.000
99.000	0.000
99.050	0.000
99.100	0.000
99.150	0.000
99.200	0.000
99.250	0.000
99.300	0.000
99.350	0.000
99.400	0.000
99.450	0.000
99.500	0.000
99.550	0.000
99.600	0.000
99.650	0.000
99.700	0.000
99.750	0.000
99.800	0.000
99.850	0.000
99.900	0.000
99.950	0.000
100.000	0.000
100.050	-0.010
100.100	0.000
100.150	0.010
100.200	0.000
100.250	0.000
100.300	-0.005
100.350	0.000
100.400	-0.542
100.450	-0.278
100.500	0.205
100.550	-0.063
100.600	0.015
100.650	0.039
100.700	-0.078
100.750	-1.016
100.800	-0.015
100.850	-0.010
100.900	0.000
100.950	0.005
101.000	0.005
101.050	0.088
101.100	-0.034
101.150	0.034
101.200	0.000
101.250	0.015
101.300	0.308
101.350	-0.068
101.400	0.029
101.450	0.000
101.500	0.005
101.550	-0.005
101.600	-0.015
101.650	-0.005
101.700	0.000
101.750	0.005
101.800	0.000
101.850	0.000
101.900	-0.005
101.950	0.000
102.000	0.000
102.050	0.000
102.100	0.000
102.150	0.000
102.200	0.000
102.250	0.000
102.300	0.000
102.350	0.000
102.400	0.000
102.450	0.000
102.500	0.000
102.550	0.000
102.600	0.000
102.650	0.000
102.700	0.000
102.750	0.000
102.800	0.000
102.850	0.000
102.900	0.000
102.950	0.000
103.000	0.000
103.050	0.000
103.100	0.000
103.150	0.000
103.200	0.000
103.250	0.000
103.300	0.000
103.350	0.000
103.400	0.000
103.450	0.000
103.500	0.000
103.550	0.000
103.600	0.000
103.650	0.000
103.700	0.000
103.750	0.000
103.800	0.000
103.850	0.000
103.900	0.000
103.950	0.000
104.000	0.000
104.050	0.000
104.100	0.000
104.150	0.000
104.200	0.000
104.250	0.000
104.300	0.000
104.350	0.000
104.400	0.000
104.450	0.000
104.500	0.000
104.550	0.000
104.600	0.000
104.650	0.000
104.700	0.000
104.750	0.000
104.800	0.000
104.850	0.000
104.900	0.000
104.950	0.000
105.000	0.000
105.050	0.000
105.100	0.000
105.150	0.000
105.200	0.000
105.250	0.000
105.300	0.000
105.350	0.000
105.400	0.000
105.450	0.000
105.500	0.000
105.550	0.000
105.600	0.000
105.650	0.000
105.700	0.000
105.750	0.000
105.800	0.000
105.850	0.000
105.900	0.000
105.950	0.000
106.000	0.000
106.050	0.000
106.100	0.000
106.150	0.000
106.200	0.000
106.250	0.000
106.300	0.000
106.350	0.000
106.400	0.000
106.450	0.000
106.500	0.000
106.550	0.000
106.600	0.000
106.650	0.000
106.700	0.000
106.750	0.000
106.800	0.005
106.850	0.005
106.900	-0.005
106.950	0.078
107.000	-0.024
107.050	-0.044
107.100	0.015
107.150	0.000
107.200	-0.010
107.250	-0.010
107.300	0.000
107.350	0.000
107.400	0.000
107.450	0.000
107.500	0.000
107.550	0.000
107.600	0.000
107.650	0.000
107.700	0.000
107.750	0.000
107.800	0.000
107.850	0.000
107.900	0.000
107.950	0.000
108.000	0.000
108.050	0.000
108.100	0.000
108.150	0.000
108.200	0.000
108.250	0.000
108.300	0.000
108.350	0.000
108.400	0.000
108.450	0.000
108.500	0.000
108.550	0.000
108.600	0.000
108.650	0.000
108.700	0.000
108.750	0.000
108.800	0.000
108.850	0.000
108.900	0.000
108.950	0.000
109.000	-0.249
109.050	0.005
109.100	-0.020
109.150	0.000
109.200	0.005
109.250	-0.010
109.300	0.000
109.350	0.000
109.400	0.000
109.450	0.000
109.500	0.000
109.550	0.000
109.600	0.000
109.650	0.000
109.700	0.000
109.750	0.000
109.800	-0.010
109.850	0.000
109.900	0.005
109.950	0.010
110.000	0.005
110.050	0.000
110.100	-0.010
110.150	0.000
110.200	0.000
110.250	0.000
110.300	0.000
110.350	0.000
110.400	0.000
110.450	0.000
110.500	-0.005
110.550	-0.005
110.600	0.000
110.650	0.000
110.700	0.005
110.750	-0.010
110.800	0.000
110.850	0.000
110.900	0.000
110.950	0.000
111.000	0.000
111.050	0.000
111.100	0.000
111.150	0.000
111.200	0.000
111.250	0.000
111.300	0.000
111.350	0.000
111.400	0.000
111.450	0.000
111.500	0.000
111.550	0.000
111.600	0.000
111.650	-0.020
111.700	0.005
111.750	-0.015
111.800	-0.005
111.850	0.005
111.900	0.000
111.950	0.000
112.000	0.000
112.050	0.000
112.100	0.000
112.150	0.000
112.200	0.000
112.250	0.000
112.300	0.000
112.350	0.000
112.400	-0.005
112.450	-0.010
112.500	-0.005
112.550	0.000
112.600	0.000
112.650	0.000
112.700	0.000
112.750	0.000
112.800	0.000
112.850	0.000
112.900	0.000
112.950	0.000
113.000	0.000
113.050	0.000
113.100	0.000
113.150	0.000
113.200	0.000
113.250	0.000
113.300	0.000
113.350	0.000
113.400	0.000
113.450	0.000
113.500	0.000
113.550	0.000
113.600	0.000
113.650	0.000
113.700	0.000
113.750	0.000
113.800	0.000
113.850	0.000
113.900	0.000
113.950	0.000
114.000	0.000
114.050	0.000
114.100	0.000
114.150	0.000
114.200	0.000
114.250	0.000
114.300	0.000
114.350	0.000
114.400	0.000
114.450	0.000
114.500	0.000
114.550	0.000
114.600	0.000
114.650	0.000
114.700	0.000
114.750	0.000
114.800	0.000
114.850	0.000
114.900	0.000
114.950	0.000
115.000	0.000
115.050	0.000
115.100	0.000
115.150	0.000
115.200	0.000
115.250	0.000
115.300	0.000
115.350	0.000
115.400	0.000
115.450	0.000
115.500	0.000
115.550	0.020
115.600	0.015
115.650	0.010
115.700	0.000
115.750	-0.005
115.800	0.000
115.850	0.000
115.900	0.000
115.950	0.000
116.000	0.000
116.050	0.000
116.100	0.000
116.150	0.000
116.200	0.000
116.250	0.000
116.300	0.000
116.350	0.000
116.400	0.000
116.450	0.000
116.500	0.000
116.550	-0.005
116.600	0.000
116.650	0.000
116.700	0.000
116.750	0.000
116.800	0.005
116.850	0.005
116.900	0.005
116.950	0.005
117.000	0.000
117.050	-0.005
117.100	-0.005
117.150	0.000
117.200	-0.005
117.250	0.000
117.300	0.000
117.350	0.000
117.400	0.000
117.450	0.000
117.500	0.000
117.550	0.000
117.600	0.000
117.650	0.005
117.700	0.000
117.750	0.000
117.800	0.000
117.850	0.000
117.900	0.000
117.950	0.000
118.000	0.000
118.050	0.000
118.100	0.000
118.150	0.000
118.200	-0.010
118.250	-0.015
118.300	0.020
118.350	-0.010
118.400	0.000
118.450	-0.005
118.500	0.010
118.550	0.005
118.600	-0.010
118.650	0.020
118.700	-0.015
118.750	-0.005
118.800	0.000
118.850	0.000
118.900	0.000
118.950	0.000
119.000	0.000
119.050	-0.005
119.100	-0.010
119.150	0.000
119.200	0.000
119.250	0.000
119.300	-0.029
119.350	-0.015
119.400	-0.010
119.450	-0.015
119.500	-0.005
119.550	0.005
119.600	0.000
119.650	0.010
119.700	0.020
119.750	0.015
119.800	0.000
119.850	0.000
119.900	-0.010
119.950	0.000
120.000	0.000
120.050	0.000
120.100	0.068
120.150	0.054
120.200	-0.020
120.250	-0.020
120.300	-0.005
120.350	-0.010
120.400	0.000
120.450	0.000
120.500	0.005
120.550	0.000
120.600	-0.005
120.650	-0.005
120.700	-0.005
120.750	-0.005
120.800	-0.015
120.850	-0.010
120.900	-0.010
120.950	0.000
121.000	0.000
121.050	0.000
121.100	0.000
121.150	0.000
121.200	0.000
121.250	0.000
121.300	0.000
121.350	0.000
121.400	0.000
121.450	0.005
121.500	0.000
121.550	0.015
121.600	0.015
121.650	0.000
121.700	0.000
121.750	0.000
121.800	-0.005
121.850	0.000
121.900	0.000
121.950	0.000
122.000	0.000
122.050	0.000
122.100	0.000
122.150	0.000
122.200	0.000
122.250	0.000
122.300	0.000
122.350	0.000
122.400	0.000
122.450	0.000
122.500	0.000
122.550	0.000
122.600	0.000
122.650	0.000
122.700	0.000
122.750	0.000
122.800	0.000
122.850	0.000
122.900	0.000
122.950	0.000
123.000	0.000
123.050	0.000
123.100	0.000
123.150	0.000
123.200	0.000
123.250	0.000
123.300	0.000
123.350	0.000
123.400	0.000
123.450	0.000
123.500	0.000
123.550	0.000
123.600	0.000
123.650	-0.005
123.700	-0.005
123.750	0.000
123.800	0.000
123.850	0.000
123.900	0.000
123.950	0.000
124.000	0.000
124.050	0.000
124.100	0.000
124.150	-0.005
124.200	0.000
124.250	0.000
124.300	0.000
124.350	0.000
124.400	0.000
124.450	0.000
124.500	0.000
124.550	0.000
124.600	0.000
124.650	0.000
124.700	0.000
124.750	0.000
124.800	0.000
124.850	0.000
124.900	0.000
124.950	0.000
125.000	0.000
125.050	0.000
125.100	0.000
125.150	0.000
125.200	0.000
125.250	0.000
125.300	0.000
125.350	0.005
125.400	-0.005
125.450	0.000
125.500	0.000
125.550	0.000
125.600	0.000
125.650	0.000
125.700	0.000
125.750	0.000
125.800	0.000
125.850	0.000
125.900	0.000
125.950	0.000
126.000	0.000
126.050	0.000
126.100	0.000
126.150	0.000
126.200	0.000
126.250	0.000
126.300	0.000
126.350	0.000
126.400	0.000
126.450	0.000
126.500	0.000
126.550	0.000
126.600	0.000
126.650	0.000
126.700	0.000
126.750	0.000
126.800	0.000
126.850	0.000
126.900	0.000
126.950	0.000
127.000	0.000
127.050	0.000
127.100	0.000
127.150	0.000
127.200	0.000
127.250	0.000
127.300	0.000
127.350	0.000
127.400	-0.015
127.450	-0.010
127.500	-0.005
127.550	-0.005
127.600	-0.005
127.650	0.000
127.700	0.000
127.750	0.005
127.800	0.005
127.850	0.000
127.900	0.000
127.950	0.000
128.000	0.000
128.050	0.005
128.100	0.005
128.150	0.000
128.200	-0.005
128.250	0.000
128.300	-0.005
128.350	0.000
128.400	-0.015
128.450	0.000
128.500	-0.005
128.550	-0.005
128.600	0.000
128.650	0.000
128.700	0.000
128.750	0.000
128.800	0.000
128.850	0.000
128.900	0.000
128.950	0.000
129.000	0.000
129.050	0.000
129.100	0.000
129.150	0.000
129.200	0.015
129.250	0.010
129.300	0.000
129.350	0.000
129.400	0.000
129.450	0.000
129.500	0.000
129.550	0.000
129.600	0.000
129.650	0.000
129.700	0.000
129.750	0.000
129.800	0.000
129.850	0.000
129.900	0.000
129.950	0.000
130.000	0.000
130.050	0.000
130.100	0.000
130.150	0.000
130.200	0.000
130.250	0.000
130.300	-0.005
130.350	0.000
130.400	0.000
130.450	0.000
130.500	-0.010
130.550	0.000
130.600	0.000
130.650	0.000
130.700	0.005
130.750	0.000
130.800	0.015
130.850	0.010
130.900	0.005
130.950	0.005
131.000	0.005
131.050	0.000
131.100	0.000
131.150	0.005
131.200	0.000
131.250	0.000
131.300	0.000
131.350	0.000
131.400	0.000
131.450	-0.005
131.500	-0.005
131.550	0.000
131.600	-0.005
131.650	0.000
131.700	-0.005
131.750	0.000
131.800	0.000
131.850	-0.005
131.900	-0.015
131.950	-0.044
132.000	0.010
132.050	0.020
132.100	0.020
132.150	0.000
132.200	0.000
132.250	-0.005
132.300	-0.005
132.350	-0.005
132.400	0.000
132.450	0.000
132.500	0.000
132.550	0.000
132.600	0.000
132.650	0.000
132.700	0.000
132.750	0.000
132.800	0.000
132.850	0.000
132.900	0.000
132.950	0.000
133.000	0.000
133.050	0.000
133.100	-0.015
133.150	-0.005
133.200	0.000
133.250	0.000
133.300	0.000
133.350	0.005
133.400	0.000
133.450	0.000
133.500	0.000
133.550	0.000
133.600	-0.005
133.650	0.000
133.700	0.000
133.750	0.000
133.800	0.000
133.850	0.000
133.900	0.000
133.950	0.000
134.000	0.000
134.050	0.000
134.100	0.000
134.150	-0.005
134.200	0.000
134.250	0.000
134.300	0.000
134.350	-0.005
134.400	0.005
134.450	0.000
134.500	0.005
134.550	0.000
134.600	0.000
134.650	-0.127
134.700	-0.010
134.750	-0.005
134.800	0.000
134.850	0.000
134.900	0.000
134.950	0.000
135.000	0.000
135.050	0.000
135.100	0.000
135.150	-0.010
135.200	-0.005
135.250	0.000
135.300	0.000
135.350	0.000
135.400	0.000
135.450	0.000
135.500	0.000
135.550	0.000
135.600	0.000
135.650	0.000
135.700	-0.005
135.750	0.000
135.800	0.000
135.850	0.000
135.900	-0.005
135.950	-0.005
136.000	0.000
136.050	-0.005
136.100	0.010
136.150	0.000
136.200	0.005
136.250	-0.005
136.300	0.000
136.350	0.000
136.400	-0.005
136.450	0.000
136.500	0.000
136.550	-0.010
136.600	0.000
136.650	0.000
136.700	0.000
136.750	0.000
136.800	0.000
136.850	0.000
136.900	0.000
136.950	0.000
137.000	0.000
137.050	0.000
137.100	0.000
137.150	0.000
137.200	0.000
137.250	0.015
137.300	-0.020
137.350	0.000
137.400	0.005
137.450	0.000
137.500	-0.024
137.550	-0.010
137.600	-0.010
137.650	-0.005
137.700	0.000
137.750	0.000
137.800	0.000
137.850	0.000
137.900	0.000
137.950	0.000
138.000	0.000
138.050	0.000
138.100	0.000
138.150	0.000
138.200	0.000
138.250	0.000
138.300	0.000
138.350	0.000
138.400	0.000
138.450	0.000
138.500	0.000
138.550	0.073
138.600	-0.054
138.650	-0.020
138.700	0.000
138.750	-0.005
138.800	-0.005
138.850	0.000
138.900	0.000
138.950	0.000
139.000	0.000
139.050	0.000
139.100	-0.005
139.150	-0.010
139.200	0.005
139.250	0.005
139.300	-0.015
139.350	0.000
139.400	0.000
139.450	0.000
139.500	-0.005
139.550	0.000
139.600	-0.005
139.650	-0.005
139.700	-0.015
139.750	-0.005
139.800	0.029
139.850	0.142
139.900	0.068
139.950	0.024
140.000	0.000
140.050	-0.005
140.100	-0.010
140.150	-0.015
140.200	0.000
140.250	0.034
140.300	0.312
140.350	0.083
140.400	0.078
140.450	0.039
140.500	-0.347
140.550	-0.029
140.600	-0.059
140.650	-0.059
140.700	-0.073
140.750	0.312
140.800	0.342
140.850	-0.112
140.900	-0.024
140.950	-0.005
141.000	0.225
141.050	-0.195
141.100	-0.015
141.150	0.039
141.200	0.200
141.250	-0.298
141.300	-0.034
141.350	0.044
141.400	0.010
141.450	0.000
141.500	-0.205
141.550	-0.103
141.600	-0.015
141.650	0.039
141.700	0.195
141.750	-0.142
141.800	0.029
141.850	0.005
141.900	0.000
141.950	0.000
142.000	-0.059
142.050	-0.010
142.100	-0.005
142.150	0.034
142.200	0.190
142.250	0.005
142.300	-0.015
142.350	0.000
142.400	0.000
142.450	-0.137
142.500	0.010
142.550	-0.010
142.600	0.000
142.650	0.005
142.700	0.000
142.750	0.000
142.800	0.000
142.850	0.000
142.900	0.000
142.950	-0.005
143.000	0.000
143.050	0.000
143.100	0.000
143.150	0.000
143.200	0.000
143.250	0.000
143.300	-0.005
143.350	0.000
143.400	0.000
143.450	0.000
143.500	0.000
143.550	0.000
143.600	0.000
143.650	0.000
143.700	0.000
143.750	0.000
143.800	0.000
143.850	0.044
143.900	0.063
143.950	0.024
144.000	0.000
144.050	0.000
144.100	0.000
144.150	0.000
144.200	0.000
144.250	0.000
144.300	0.000
144.350	0.000
144.400	0.000
144.450	0.000
144.500	0.000
144.550	0.000
144.600	0.000
144.650	0.000
144.700	0.000
144.750	0.000
144.800	0.000
144.850	0.000
144.900	0.000
144.950	0.000
145.000	0.000
145.050	0.000
145.100	0.000
145.150	0.000
145.200	0.000
145.250	0.000
145.300	0.000
145.350	0.000
145.400	0.000
145.450	-0.112
145.500	0.005
145.550	0.000
145.600	0.000
145.650	0.000
145.700	0.000
145.750	-0.005
145.800	0.000
145.850	0.000
145.900	-0.005
145.950	0.005
146.000	0.000
146.050	0.000
146.100	0.000
146.150	0.000
146.200	0.000
146.250	0.000
146.300	0.000
146.350	0.000
146.400	0.000
146.450	0.000
146.500	0.000
146.550	0.000
146.600	0.000
146.650	-0.015
146.700	-0.015
146.750	0.010
146.800	0.000
146.850	0.000
146.900	0.000
146.950	0.005
147.000	0.000
147.050	-0.005
147.100	0.000
147.150	0.000
147.200	0.000
147.250	0.000
147.300	0.005
147.350	0.000
147.400	0.000
147.450	0.000
147.500	0.000
147.550	0.000
147.600	0.000
147.650	-0.010
147.700	0.000
147.750	0.000
147.800	0.000
147.850	0.000
147.900	0.000
147.950	0.000
148.000	0.000
148.050	0.000
148.100	0.000
148.150	0.005
148.200	0.000
148.250	0.000
148.300	-0.005
148.350	0.000
148.400	0.000
148.450	0.005
148.500	0.000
148.550	0.000
148.600	0.000
148.650	0.000
148.700	0.000
148.750	0.000
148.800	0.000
148.850	0.000
148.900	0.000
148.950	0.000
149.000	0.000
149.050	0.000
149.100	0.000
149.150	0.000
149.200	-0.005
149.250	0.000
149.300	0.005
149.350	-0.010
149.400	0.000
149.450	-0.015
149.500	-0.005
149.550	0.000
149.600	0.000
149.650	0.000
149.700	0.000
149.750	-0.005
149.800	-0.005
149.850	0.000
149.900	-0.010
149.950	0.000
150.000	0.000
150.050	-0.005
150.100	0.000
150.150	0.000
150.200	0.000
150.250	0.000
150.300	0.000
150.350	0.000
150.400	-0.005
150.450	0.000
150.500	0.000
150.550	0.000
150.600	0.000
150.650	0.000
150.700	-0.005
150.750	0.000
150.800	0.000
150.850	0.000
150.900	0.000
150.950	0.000
151.000	0.000
151.050	-0.005
151.100	0.000
151.150	0.000
151.200	0.000
151.250	0.000
151.300	0.000
151.350	0.000
151.400	-0.010
151.450	0.000
151.500	0.000
151.550	0.000
151.600	0.000
151.650	0.000
151.700	0.000
151.750	0.000
151.800	0.000
151.850	0.000
151.900	0.005
151.950	0.000
152.000	0.000
152.050	-0.005
152.100	0.000
152.150	0.000
152.200	-0.005
152.250	0.000
152.300	0.000
152.350	0.000
152.400	0.000
152.450	-0.005
152.500	0.005
152.550	-0.005
152.600	0.000
152.650	0.000
152.700	0.000
152.750	0.000
152.800	0.000
152.850	0.000
152.900	0.010
152.950	-0.010
153.000	-0.015
153.050	0.000
153.100	0.000
153.150	-0.010
153.200	-0.010
153.250	0.000
153.300	-0.010
153.350	-0.010
153.400	-0.010
153.450	-0.010
153.500	-0.010
153.550	-0.015
153.600	-0.015
153.650	-0.005
153.700	0.000
153.750	-0.015
153.800	-0.015
153.850	-0.020
153.900	0.005
153.950	-0.024
154.000	0.005
154.050	0.010
154.100	0.000
154.150	0.000
154.200	0.000
154.250	-0.005
154.300	0.000
154.350	0.000
154.400	0.000
154.450	0.000
154.500	0.000
154.550	0.005
154.600	0.000
154.650	0.000
154.700	0.000
154.750	0.000
154.800	0.000
154.850	0.000
154.900	0.000
154.950	0.000
155.000	0.000
155.050	0.000
155.100	0.000
155.150	0.000
155.200	0.000
155.250	0.000
155.300	0.000
155.350	0.000
155.400	0.000
155.450	0.000
155.500	0.000
155.550	0.000
155.600	0.000
155.650	-0.039
155.700	-0.005
155.750	0.000
155.800	0.000
155.850	0.000
155.900	0.000
155.950	0.000
156.000	0.000
156.050	0.000
156.100	0.000
156.150	0.000
156.200	0.000
156.250	0.005
156.300	0.000
156.350	0.000
156.400	0.000
156.450	0.000
156.500	0.000
156.550	0.000
156.600	0.000
156.650	0.005
156.700	0.000
156.750	0.000
156.800	0.000
156.850	-0.005
156.900	0.000
156.950	0.000
157.000	0.005
157.050	0.000
157.100	0.005
157.150	0.010
157.200	0.020
157.250	0.020
157.300	0.024
157.350	0.039
157.400	0.010
157.450	0.000
157.500	0.000
157.550	0.000
157.600	0.000
157.650	0.000
157.700	0.000
157.750	0.000
157.800	0.000
157.850	0.000
157.900	0.000
157.950	-0.049
158.000	0.020
158.050	-0.020
158.100	-0.034
158.150	-0.005
158.200	-0.020
158.250	-0.049
158.300	-0.039
158.350	-0.010
158.400	0.000
158.450	0.000
158.500	0.005
158.550	0.020
158.600	0.054
158.650	0.039
158.700	0.015
158.750	0.010
158.800	0.005
158.850	0.010
158.900	-0.005
158.950	0.000
159.000	0.000
159.050	0.000
159.100	-0.020
159.150	-0.029
159.200	0.010
159.250	0.000
159.300	-0.005
159.350	0.005
159.400	0.005
159.450	-0.010
159.500	-0.015
159.550	0.010
159.600	-0.024
159.650	-0.010
159.700	-0.015
159.750	-0.020
159.800	0.000
159.850	-0.054
159.900	-0.024
159.950	-0.015
160.000	0.000
160.050	0.000
160.100	-0.005
160.150	0.000
160.200	-0.010
160.250	-0.010
160.300	-0.010
160.350	0.000
160.400	-0.010
160.450	-0.063
160.500	-0.059
160.550	-0.024
160.600	-0.015
160.650	0.000
160.700	0.000
160.750	0.000
160.800	0.005
160.850	0.020
160.900	0.054
160.950	0.034
161.000	0.005
161.050	0.015
161.100	0.024
161.150	0.034
161.200	0.010
161.250	0.020
161.300	0.034
161.350	0.005
161.400	0.005
161.450	0.000
161.500	-0.015
161.550	0.005
161.600	0.000
161.650	-0.054
161.700	0.000
161.750	-0.029
161.800	0.005
161.850	-0.029
161.900	0.000
161.950	-0.024
162.000	-0.005
162.050	0.000
162.100	-0.005
162.150	-0.005
162.200	0.000
162.250	0.000
162.300	0.000
162.350	0.000
162.400	0.000
162.450	0.000
162.500	0.000
162.550	0.000
162.600	0.000
162.650	0.000
162.700	0.000
162.750	-0.010
162.800	0.005
162.850	0.000
162.900	-0.010
162.950	0.000
163.000	0.000
163.050	0.000
163.100	0.000
163.150	-0.015
163.200	-0.015
163.250	0.024
163.300	-0.005
163.350	0.010
163.400	0.000
163.450	-0.005
163.500	0.000
163.550	0.000
163.600	0.000
163.650	0.000
163.700	0.000
163.750	0.000
163.800	0.000
163.850	0.000
163.900	0.000
163.950	0.000
164.000	0.000
164.050	0.000
164.100	0.000
164.150	0.000
164.200	0.000
164.250	0.000
164.300	0.000
164.350	0.000
164.400	0.000
164.450	0.000
164.500	0.000
164.550	0.000
164.600	0.000
164.650	0.000
164.700	0.000
164.750	0.000
164.800	0.000
164.850	0.000
164.900	0.000
164.950	0.000
165.000	-0.010
165.050	0.000
165.100	0.000
165.150	0.000
165.200	0.000
165.250	-0.005
165.300	0.000
165.350	0.000
165.400	0.000
165.450	0.005
165.500	0.000
165.550	0.000
165.600	0.000
165.650	0.000
165.700	0.000
165.750	0.000
165.800	0.000
165.850	0.000
165.900	0.000
165.950	0.000
166.000	0.000
166.050	0.000
166.100	-0.005
166.150	0.000
166.200	0.000
166.250	0.000
166.300	0.000
166.350	-0.005
166.400	-0.015
166.450	0.000
166.500	0.000
166.550	-0.015
166.600	0.005
166.650	0.015
166.700	-0.024
166.750	-0.005
166.800	0.005
166.850	0.000
166.900	0.000
166.950	0.005
167.000	0.000
167.050	-0.029
167.100	-0.024
167.150	0.000
167.200	0.000
167.250	0.000
167.300	-0.015
167.350	0.000
167.400	-0.005
167.450	0.000
167.500	-0.010
167.550	0.000
167.600	0.005
167.650	-0.005
167.700	-0.015
167.750	0.005
167.800	0.000
167.850	-0.010
167.900	0.034
167.950	0.000
168.000	0.000
168.050	0.000
168.100	0.005
168.150	0.000
168.200	0.005
168.250	0.005
168.300	0.005
168.350	0.010
168.400	0.015
168.450	-0.088
168.500	-0.010
168.550	0.049
168.600	0.005
168.650	-0.005
168.700	0.000
168.750	0.000
168.800	0.000
168.850	0.000
168.900	0.000
168.950	0.000
169.000	0.000
169.050	0.000
169.100	-0.015
169.150	0.005
169.200	-0.024
169.250	0.015
169.300	0.010
169.350	0.000
169.400	0.000
169.450	0.000
169.500	0.000
169.550	0.000
169.600	0.000
169.650	-0.005
169.700	-0.005
169.750	0.000
169.800	0.000
169.850	-0.020
169.900	0.005
169.950	-0.005
170.000	-0.005
170.050	0.000
170.100	-0.005
170.150	0.005
170.200	0.000
170.250	-0.005
170.300	0.000
170.350	0.000
170.400	0.000
170.450	0.005
170.500	-0.010
170.550	-0.010
170.600	0.000
170.650	0.000
170.700	-0.005
170.750	-0.010
170.800	0.000
170.850	0.000
170.900	0.000
170.950	0.000
171.000	0.000
171.050	0.000
171.100	0.000
171.150	-0.010
171.200	0.000
171.250	0.000
171.300	0.000
171.350	0.000
171.400	0.000
171.450	0.005
171.500	0.000
171.550	0.000
171.600	0.000
171.650	0.000
171.700	0.000
171.750	0.000
171.800	0.000
171.850	0.000
171.900	0.000
171.950	0.000
172.000	0.000
172.050	0.000
172.100	0.000
172.150	0.000
172.200	0.000
172.250	0.000
172.300	0.000
172.350	0.000
172.400	0.000
172.450	0.000
172.500	0.000
172.550	0.000
172.600	0.000
172.650	0.000
172.700	0.000
172.750	0.000
172.800	0.000
172.850	0.000
172.900	0.000
172.950	0.000
173.000	0.000
173.050	-0.005
173.100	0.000
173.150	0.000
173.200	0.000
173.250	0.010
173.300	0.005
173.350	0.000
173.400	-0.015
173.450	0.015
173.500	-0.010
173.550	0.020
173.600	0.015
173.650	0.000
173.700	0.000
173.750	-0.010
173.800	-0.015
173.850	0.024
173.900	-0.010
173.950	0.005
174.000	-0.020
174.050	0.000
174.100	0.000
174.150	0.005
174.200	0.000
174.250	0.005
174.300	-0.010
174.350	-0.010
174.400	0.000
174.450	-0.015
174.500	-0.005
174.550	-0.005
174.600	0.005
174.650	0.000
174.700	0.000
174.750	0.005
174.800	0.015
174.850	-0.005
174.900	0.010
174.950	0.005
175.000	0.005
175.050	0.000
175.100	0.044
175.150	0.049
175.200	-0.010
175.250	0.020
175.300	0.000
175.350	0.005
175.400	-0.015
175.450	-0.010
175.500	0.000
175.550	-0.005
175.600	0.010
175.650	0.024
175.700	0.010
175.750	0.015
175.800	0.015
175.850	0.000
175.900	0.005
175.950	0.015
176.000	0.015
176.050	0.010
176.100	0.024
176.150	0.005
176.200	0.000
176.250	-0.010
176.300	0.005
176.350	-0.015
176.400	-0.195
176.450	0.005
176.500	-0.020
176.550	-0.005
176.600	0.000
176.650	0.000
176.700	0.000
176.750	0.083
176.800	-0.010
176.850	-0.015
176.900	0.000
176.950	0.000
177.000	0.000
177.050	0.000
177.100	-0.005
177.150	-0.005
177.200	-0.010
177.250	-0.024
177.300	-0.015
177.350	-0.015
177.400	0.000
177.450	-0.005
177.500	0.000
177.550	0.000
177.600	0.000
177.650	-0.029
177.700	-0.024
177.750	-0.005
177.800	-0.010
177.850	-0.005
177.900	-0.005
177.950	-0.010
178.000	0.000
178.050	0.000
178.100	0.000
178.150	0.000
178.200	0.000
178.250	0.005
178.300	0.015
178.350	0.020
178.400	0.005
178.450	0.000
178.500	0.005
178.550	0.000
178.600	-0.005
178.650	-0.005
178.700	0.000
178.750	0.005
178.800	-0.005
178.850	0.000
178.900	0.000
178.950	0.000
179.000	0.005
179.050	0.000
179.100	0.005
179.150	0.000
179.200	0.000
179.250	-0.005
179.300	-0.010
179.350	0.024
179.400	0.000
179.450	0.000
179.500	0.000
179.550	0.000
179.600	0.000
179.650	0.000
179.700	0.000
179.750	0.000
179.800	0.000
179.850	0.000
179.900	-0.010
179.950	0.000
180.000	-0.010
180.050	0.000
180.100	0.000
180.150	0.005
180.200	0.039
180.250	0.005
180.300	0.010
180.350	0.000
180.400	0.005
180.450	0.000
180.500	0.000
180.550	0.000
180.600	0.000
180.650	0.000
180.700	0.000
180.750	-0.005
180.800	-0.005
180.850	-0.005
180.900	0.005
180.950	0.020
181.000	-0.020
181.050	-0.020
181.100	0.005
181.150	0.000
181.200	-0.005
181.250	0.000
181.300	0.005
181.350	0.000
181.400	-0.029
181.450	-0.010
181.500	0.005
181.550	0.005
181.600	0.000
181.650	0.000
181.700	0.000
181.750	0.000
181.800	-0.010
181.850	0.000
181.900	0.000
181.950	-0.010
182.000	0.000
182.050	0.024
182.100	0.000
182.150	0.005
182.200	-0.010
182.250	0.015
182.300	-0.010
182.350	0.000
182.400	-0.005
182.450	0.000
182.500	0.000
182.550	0.000
182.600	0.000
182.650	0.000
182.700	0.000
182.750	-0.010
182.800	0.000
182.850	0.000
182.900	0.005
182.950	0.000
183.000	-0.010
183.050	-0.005
183.100	0.000
183.150	0.000
183.200	0.000
183.250	0.000
183.300	0.000
183.350	0.000
183.400	-0.039
183.450	0.010
183.500	0.005
183.550	0.000
183.600	0.000
183.650	0.005
183.700	0.000
183.750	0.000
183.800	-0.015
183.850	0.000
183.900	0.000
183.950	-0.005
184.000	-0.005
184.050	0.010
184.100	0.000
184.150	0.000
184.200	0.000
184.250	0.000
184.300	0.000
184.350	0.000
184.400	-0.010
184.450	0.000
184.500	-0.005
184.550	0.000
184.600	0.000
184.650	0.000
184.700	0.000
184.750	0.000
184.800	0.000
184.850	0.000
184.900	0.000
184.950	0.000
185.000	0.000
185.050	0.000
185.100	0.000
185.150	0.000
185.200	0.000
185.250	0.000
185.300	0.000
185.350	0.000
185.400	0.000
185.450	0.000
185.500	0.000
185.550	0.000
185.600	0.000
185.650	0.000
185.700	0.005
185.750	0.000
185.800	0.000
185.850	-0.010
185.900	0.000
185.950	0.000
186.000	0.000
186.050	0.000
186.100	-0.015
186.150	0.000
186.200	0.000
186.250	-0.005
186.300	0.000
186.350	-0.005
186.400	0.005
186.450	-0.005
186.500	0.000
186.550	0.000
186.600	0.005
186.650	0.000
186.700	0.000
186.750	0.000
186.800	-0.005
186.850	-0.010
186.900	0.000
186.950	0.000
187.000	0.000
187.050	0.000
187.100	0.000
187.150	0.000
187.200	0.000
187.250	0.000
187.300	0.000
187.350	0.000
187.400	-0.005
187.450	0.000
187.500	-0.005
187.550	0.000
187.600	-0.078
187.650	0.015
187.700	0.005
187.750	0.000
187.800	-0.005
187.850	0.000
187.900	0.000
187.950	-0.005
188.000	-0.005
188.050	0.005
188.100	-0.005
188.150	0.005
188.200	0.000
188.250	0.005
188.300	0.000
188.350	0.000
188.400	0.000
188.450	0.005
188.500	0.005
188.550	-0.005
188.600	-0.015
188.650	0.000
188.700	0.000
188.750	-0.005
188.800	-0.010
188.850	-0.015
188.900	0.015
188.950	0.000
189.000	0.000
189.050	0.000
189.100	-0.015
189.150	-0.010
189.200	-0.010
189.250	0.000
189.300	0.005
189.350	-0.005
189.400	0.000
189.450	0.000
189.500	-0.005
189.550	0.000
189.600	0.000
189.650	-0.010
189.700	-0.024
189.750	0.020
189.800	-0.010
189.850	-0.010
189.900	0.000
189.950	-0.039
190.000	-0.015
190.050	0.005
190.100	0.005
190.150	0.000
190.200	0.005
190.250	0.005
190.300	0.005
190.350	0.000
190.400	0.000
190.450	0.000
190.500	0.010
190.550	0.005
190.600	0.005
190.650	0.000
190.700	0.000
190.750	0.000
190.800	0.000
190.850	-0.005
190.900	-0.005
190.950	-0.015
191.000	-0.015
191.050	-0.010
191.100	-0.015
191.150	-0.005
191.200	0.000
191.250	-0.005
191.300	0.010
191.350	0.005
191.400	0.010
191.450	0.005
191.500	0.000
191.550	0.000
191.600	0.000
191.650	0.005
191.700	-0.005
191.750	0.000
191.800	0.000
191.850	-0.010
191.900	-0.010
191.950	-0.015
192.000	-0.005
192.050	-0.015
192.100	-0.010
192.150	-0.010
192.200	-0.034
192.250	-0.015
192.300	-0.020
192.350	0.005
192.400	0.005
192.450	0.020
192.500	0.029
192.550	0.024
192.600	0.005
192.650	0.000
192.700	-0.005
192.750	0.000
192.800	0.000
192.850	0.000
192.900	0.000
192.950	-0.088
193.000	-0.015
193.050	-0.015
193.100	-0.005
193.150	-0.005
193.200	0.000
193.250	0.000
193.300	0.000
193.350	0.000
193.400	0.000
193.450	0.000
193.500	0.000
193.550	0.000
193.600	0.000
193.650	0.000
193.700	0.005
193.750	0.000
193.800	0.000
193.850	0.000
193.900	0.000
193.950	0.000
194.000	0.000
194.050	0.000
194.100	0.000
194.150	0.000
194.200	0.000
194.250	-0.010
194.300	0.000
194.350	0.000
194.400	-0.020
194.450	0.000
194.500	0.000
194.550	-0.005
194.600	0.000
194.650	0.000
194.700	0.000
194.750	0.000
194.800	0.000
194.850	0.000
194.900	0.005
194.950	-0.005
195.000	0.000
195.050	0.000
195.100	0.000
195.150	0.000
195.200	0.000
195.250	0.000
195.300	0.005
195.350	-0.015
195.400	-0.015
195.450	0.000
195.500	-0.010
195.550	0.000
195.600	0.000
195.650	0.000
195.700	-0.005
195.750	-0.005
195.800	0.000
195.850	-0.010
195.900	0.000
195.950	0.000
196.000	0.000
196.050	0.010
196.100	0.005
196.150	0.000
196.200	-0.005
196.250	0.000
196.300	0.005
196.350	0.020
196.400	0.010
196.450	0.000
196.500	0.000
196.550	0.000
196.600	0.000
196.650	-0.020
196.700	0.000
196.750	-0.005
196.800	0.000
196.850	-0.063
196.900	-0.024
196.950	-0.020
197.000	-0.015
197.050	-0.005
197.100	-0.005
197.150	0.010
197.200	-0.015
197.250	-0.005
197.300	0.000
197.350	0.000
197.400	0.000
197.450	0.000
197.500	0.000
197.550	-0.024
197.600	0.000
197.650	-0.010
197.700	-0.005
197.750	-0.010
197.800	-0.005
197.850	0.000
197.900	0.000
197.950	0.000
198.000	0.000
198.050	0.000
198.100	0.000
198.150	0.000
198.200	0.000
198.250	0.000
198.300	0.000
198.350	0.000
198.400	0.000
198.450	0.000
198.500	0.000
198.550	0.000
198.600	0.000
198.650	0.000
198.700	0.000
198.750	0.000
198.800	0.000
198.850	0.000
198.900	0.000
198.950	0.000
199.000	0.000
199.050	0.000
199.100	0.000
199.150	0.000
199.200	0.000
199.250	0.000
199.300	0.000
199.350	0.000
199.400	0.000
199.450	0.000
199.500	0.000
199.550	0.000
199.600	-0.005
199.650	-0.005
199.700	0.015
199.750	-0.005
199.800	0.005
199.850	0.000
199.900	-0.010
199.950	0.005
200.000	-0.010
200.050	0.000
200.100	0.078
200.150	0.005
200.200	-0.005
200.250	0.005
200.300	0.005
200.350	0.000
200.400	0.000
200.450	0.000
200.500	0.000
200.550	-0.005
200.600	0.000
200.650	0.000
200.700	0.000
200.750	0.000
200.800	0.000
200.850	0.005
200.900	0.000
200.950	0.000
201.000	0.000
201.050	0.000
201.100	0.020
201.150	-0.332
201.200	0.000
201.250	-0.020
201.300	-0.059
201.350	-0.103
201.400	-0.093
201.450	-0.029
201.500	-0.024
201.550	-0.010
201.600	-0.186
201.650	-0.073
201.700	0.010
201.750	-0.010
201.800	-0.020
201.850	0.703
201.900	-0.093
201.950	0.005
202.000	0.000
202.050	0.000
202.100	0.000
202.150	0.210
202.200	0.044
202.250	0.000
202.300	-0.039
202.350	0.151
202.400	-0.005
202.450	0.044
202.500	0.015
202.550	-0.005
202.600	0.000
202.650	0.273
202.700	0.049
202.750	0.005
202.800	0.000
202.850	-0.186
202.900	-0.024
202.950	-0.049
203.000	-0.039
203.050	-0.015
203.100	0.000
203.150	0.098
203.200	-0.059
203.250	0.034
203.300	0.049
203.350	-0.015
203.400	0.225
203.450	-0.034
203.500	0.005
203.550	0.015
203.600	0.015
203.650	0.000
203.700	0.464
203.750	0.044
203.800	-0.020
203.850	-0.010
203.900	-0.020
203.950	0.547
204.000	0.010
204.050	0.059
204.100	0.020
204.150	-0.005
204.200	0.000
204.250	-0.264
204.300	-0.059
204.350	-0.039
204.400	0.005
204.450	-0.020
204.500	-0.283
204.550	-0.059
204.600	-0.020
204.650	-0.010
204.700	0.000
204.750	0.000
204.800	0.015
204.850	-0.132
204.900	0.044
204.950	0.029
205.000	0.029
205.050	-0.029
205.100	0.073
205.150	0.000
205.200	0.005
205.250	0.005
205.300	0.000
205.350	-0.234
205.400	0.273
205.450	0.132
205.500	-0.044
205.550	0.029
205.600	0.005
205.650	-0.112
205.700	-0.103
205.750	-0.029
205.800	0.000
205.850	0.010
205.900	0.005
205.950	0.142
206.000	-0.054
206.050	-0.029
206.100	0.029
206.150	0.010
206.200	-0.195
206.250	-0.044
206.300	-0.059
206.350	-0.039
206.400	-0.010
206.450	0.005
206.500	-0.078
206.550	-0.303
206.600	-0.034
206.650	0.029
206.700	0.054
206.750	-0.098
206.800	0.278
206.850	0.059
206.900	0.049
206.950	0.010
207.000	-0.010
207.050	-0.986
207.100	0.103
207.150	0.220
207.200	0.000
207.250	0.000
207.300	0.034
207.350	0.015
207.400	-0.068
207.450	-0.078
207.500	-0.039
207.550	-0.015
207.600	0.000
207.650	-0.317
207.700	0.215
207.750	0.186
207.800	-0.010
207.850	-0.005
207.900	0.020
207.950	-0.010
208.000	0.005
208.050	-0.010
208.100	0.000
208.150	0.005
208.200	0.000
208.250	0.093
208.300	0.112
208.350	-0.015
208.400	0.000
208.450	0.103
208.500	-0.073
208.550	0.044
208.600	-0.044
208.650	0.000
208.700	0.020
208.750	0.010
208.800	0.234
208.850	0.034
208.900	-0.020
208.950	0.024
209.000	0.024
209.050	-0.015
209.100	-0.205
209.150	-0.054
209.200	0.005
209.250	-0.015
209.300	0.278
209.350	0.093
209.400	0.146
209.450	-0.059
209.500	0.000
209.550	0.000
209.600	-0.010
209.650	-0.034
209.700	-0.034
209.750	-0.020
209.800	-0.010
209.850	0.000
209.900	0.000
209.950	0.000
210.000	0.000
210.050	0.000
210.100	0.000
210.150	0.000
210.200	0.000
210.250	0.000
210.300	0.000
210.350	0.000
210.400	0.000
210.450	0.000
210.500	0.000
210.550	-0.005
210.600	0.000
210.650	0.000
210.700	0.000
210.750	0.000
210.800	0.000
210.850	0.000
210.900	0.000
210.950	0.000
211.000	0.000
211.050	0.000
211.100	0.000
211.150	0.000
211.200	0.000
211.250	0.000
211.300	0.005
211.350	0.000
211.400	0.000
211.450	0.000
211.500	0.000
211.550	0.005
211.600	0.005
211.650	0.005
211.700	0.005
211.750	0.000
211.800	0.000
211.850	0.005
211.900	0.005
211.950	0.005
212.000	0.005
212.050	0.000
212.100	0.000
212.150	0.000
212.200	0.000
212.250	0.000
212.300	0.000
212.350	0.000
212.400	0.000
212.450	0.000
212.500	0.000
212.550	0.000
212.600	0.000
212.650	0.000
212.700	-0.005
212.750	-0.005
212.800	-0.015
212.850	-0.010
212.900	-0.015
212.950	-0.015
213.000	-0.010
213.050	-0.005
213.100	-0.015
213.150	-0.024
213.200	0.015
213.250	0.107
213.300	-0.020
213.350	0.005
213.400	-0.010
213.450	-0.210
213.500	-0.288
213.550	-0.059
213.600	-0.024
213.650	-0.005
213.700	0.005
213.750	0.005
213.800	0.000
213.850	0.000
213.900	-0.010
213.950	-0.010
214.000	-0.020
214.050	-0.039
214.100	-0.005
214.150	-0.010
214.200	0.005
214.250	0.059
214.300	0.005
214.350	-0.015
214.400	-0.029
214.450	0.352
214.500	-0.156
214.550	0.161
214.600	0.024
214.650	0.000
214.700	-0.015
214.750	-0.010
214.800	0.142
214.850	0.039
214.900	0.000
214.950	-0.005
215.000	-0.020
215.050	-0.029
215.100	0.010
215.150	0.024
215.200	0.005
215.250	-0.054
215.300	0.000
215.350	0.044
215.400	0.039
215.450	-0.005
215.500	-0.024
215.550	-0.171
215.600	0.054
215.650	-0.146
215.700	-0.059
215.750	-0.020
215.800	0.000
215.850	0.005
215.900	0.073
215.950	-0.093
216.000	0.078
216.050	-0.010
216.100	-0.005
216.150	-0.024
216.200	-0.054
216.250	-0.010
216.300	0.000
216.350	-0.015
216.400	0.015
216.450	0.156
216.500	0.010
216.550	0.020
216.600	-0.005
216.650	-0.234
216.700	-0.166
216.750	0.015
216.800	-0.059
216.850	-0.010
216.900	0.000
216.950	0.005
217.000	0.000
217.050	0.098
217.100	0.015
217.150	0.000
217.200	-0.005
217.250	-0.010
217.300	-0.117
217.350	0.000
217.400	0.029
217.450	0.005
217.500	-0.054
217.550	-0.010
217.600	0.146
217.650	0.005
217.700	0.010
217.750	0.000
217.800	-0.024
217.850	-0.200
217.900	0.054
217.950	0.024
218.000	0.005
218.050	-0.005
218.100	0.000
218.150	0.000
218.200	-0.049
218.250	0.000
218.300	-0.054
218.350	0.000
218.400	-0.005
218.450	-0.020
218.500	-0.059
218.550	0.000
218.600	0.000
218.650	-0.015
218.700	-0.029
218.750	0.005
218.800	0.088
218.850	0.015
218.900	0.015
218.950	0.000
219.000	-0.020
219.050	-0.259
219.100	0.039
219.150	0.010
219.200	0.000
219.250	0.000
219.300	0.000
219.350	0.288
219.400	-0.176
219.450	-0.015
219.500	0.000
219.550	0.000
219.600	-0.005
219.650	-0.015
219.700	0.000
219.750	-0.005
219.800	0.005
219.850	0.000
219.900	0.000
219.950	0.000
220.000	0.000
220.050	0.000
220.100	-0.005
220.150	-0.005
220.200	-0.020
220.250	-0.020
220.300	-0.049
220.350	-0.015
220.400	-0.024
220.450	0.000
220.500	-0.015
220.550	0.000
220.600	0.000
220.650	0.000
220.700	0.000
220.750	0.000
220.800	0.000
220.850	0.000
220.900	0.000
220.950	0.000
221.000	0.000
221.050	0.005
221.100	0.000
221.150	0.000
221.200	-0.010
221.250	0.000
221.300	0.000
221.350	0.000
221.400	0.000
221.450	0.000
221.500	0.000
221.550	0.000
221.600	0.000
221.650	0.000
221.700	0.000
221.750	0.000
221.800	0.000
221.850	0.000
221.900	0.093
221.950	0.024
222.000	0.020
222.050	0.010
222.100	0.000
222.150	0.000
222.200	0.000
222.250	0.000
222.300	-0.005
222.350	-0.005
222.400	-0.015
222.450	0.000
222.500	0.005
222.550	0.000
222.600	0.005
222.650	0.010
222.700	0.020
222.750	0.005
222.800	0.000
222.850	0.000
222.900	0.000
222.950	0.000
223.000	0.000
223.050	-0.010
223.100	0.000
223.150	0.000
223.200	0.000
223.250	-0.005
223.300	-0.010
223.350	0.000
223.400	0.000
223.450	0.000
223.500	-0.010
223.550	0.000
223.600	0.000
223.650	0.000
223.700	0.000
223.750	0.000
223.800	0.000
223.850	0.000
223.900	0.000
223.950	0.000
224.000	0.000
224.050	0.000
224.100	0.000
224.150	0.000
224.200	0.000
224.250	0.000
224.300	0.000
224.350	0.000
224.400	0.000
224.450	0.000
224.500	0.000
224.550	0.000
224.600	0.000
224.650	0.005
224.700	0.000
224.750	-0.005
224.800	0.000
224.850	0.000
224.900	0.000
224.950	0.000
225.000	0.000
225.050	0.000
225.100	0.000
225.150	0.000
225.200	0.000
225.250	0.000
225.300	0.000
225.350	0.000
225.400	0.000
225.450	-0.005
225.500	0.000
225.550	0.000
225.600	0.000
225.650	0.000
225.700	-0.005
225.750	0.000
225.800	-0.010
225.850	-0.010
225.900	-0.005
225.950	0.000
226.000	0.000
226.050	0.005
226.100	0.005
226.150	0.000
226.200	-0.010
226.250	0.005
226.300	0.000
226.350	0.000
226.400	0.000
226.450	0.000
226.500	0.000
226.550	0.000
226.600	0.000
226.650	0.015
226.700	0.000
226.750	0.000
226.800	0.005
226.850	0.000
226.900	-0.005
226.950	0.000
227.000	0.000
227.050	0.000
227.100	0.000
227.150	-0.010
227.200	-0.029
227.250	-0.015
227.300	-0.020
227.350	-0.015
227.400	-0.005
227.450	-0.010
227.500	0.000
227.550	0.000
227.600	0.005
227.650	0.005
227.700	0.010
227.750	-0.010
227.800	-0.034
227.850	-0.005
227.900	0.000
227.950	-0.005
228.000	-0.005
228.050	0.000
228.100	0.000
228.150	0.005
228.200	0.010
228.250	0.020
228.300	0.034
228.350	0.000
228.400	0.000
228.450	0.000
228.500	0.000
228.550	0.000
228.600	0.000
228.650	0.000
228.700	-0.010
228.750	-0.010
228.800	-0.010
228.850	0.000
228.900	-0.005
228.950	0.000
229.000	0.000
229.050	0.000
229.100	0.000
229.150	0.000
229.200	-0.005
229.250	0.000
229.300	0.000
229.350	0.000
229.400	0.005
229.450	0.000
229.500	0.000
229.550	-0.010
229.600	-0.005
229.650	0.000
229.700	0.000
229.750	0.000
229.800	0.000
229.850	0.000
229.900	0.000
229.950	0.000
230.000	0.000
230.050	0.000
230.100	0.000
230.150	0.000
230.200	0.000
230.250	0.000
230.300	0.000
230.350	0.000
230.400	0.000
230.450	0.000
230.500	0.000
230.550	0.000
230.600	0.000
230.650	0.000
230.700	0.000
230.750	0.000
230.800	0.000
230.850	0.000
230.900	0.000
230.950	0.000
231.000	0.000
231.050	0.000
231.100	0.000
231.150	0.000
231.200	0.000
231.250	0.005
231.300	0.015
231.350	0.000
231.400	0.000
231.450	0.000
231.500	0.000
231.550	0.000
231.600	0.000
231.650	0.000
231.700	0.000
231.750	-0.005
231.800	-0.005
231.850	-0.005
231.900	0.000
231.950	0.000
232.000	0.000
232.050	0.000
232.100	0.000
232.150	0.000
232.200	0.000
232.250	0.000
232.300	-0.024
232.350	0.063
232.400	0.005
232.450	-0.005
232.500	-0.010
232.550	-0.005
232.600	0.010
232.650	0.020
232.700	0.000
232.750	0.000
232.800	-0.005
232.850	0.000
232.900	0.000
232.950	0.000
233.000	0.000
233.050	0.000
233.100	0.000
233.150	0.000
233.200	0.000
233.250	0.000
233.300	0.000
233.350	0.000
233.400	0.000
233.450	0.000
233.500	0.000
233.550	0.000
233.600	0.000
233.650	0.000
233.700	0.000
233.750	0.000
233.800	0.000
233.850	-0.146
233.900	0.117
233.950	-0.005
234.000	0.049
234.050	0.044
234.100	0.024
234.150	0.000
234.200	0.000
234.250	0.000
234.300	0.000
234.350	0.000
234.400	0.000
234.450	0.000
234.500	0.000
234.550	-0.005
234.600	0.005
234.650	0.000
234.700	-0.010
234.750	-0.005
234.800	-0.005
234.850	0.000
234.900	0.000
234.950	-0.005
235.000	0.000
235.050	0.000
235.100	0.000
235.150	0.000
235.200	-0.005
235.250	0.000
235.300	0.000
235.350	0.000
235.400	0.000
235.450	0.000
235.500	0.000
235.550	0.000
235.600	0.000
235.650	0.000
235.700	0.000
235.750	0.000
235.800	0.000
235.850	0.000
235.900	0.000
235.950	0.000
236.000	0.000
236.050	0.000
236.100	0.000
236.150	0.000
236.200	0.000
236.250	0.000
236.300	0.000
236.350	0.000
236.400	0.000
236.450	0.000
236.500	0.000
236.550	0.000
236.600	0.000
236.650	0.000
236.700	0.000
236.750	0.000
236.800	0.000
236.850	0.000
236.900	0.000
236.950	0.000
237.000	0.000
237.050	0.000
237.100	0.000
237.150	0.000
237.200	0.000
237.250	0.000
237.300	0.000
237.350	0.000
237.400	0.000
237.450	0.000
237.500	0.000
237.550	0.000
237.600	0.000
237.650	0.000
237.700	0.000
237.750	0.000
237.800	0.000
237.850	0.000
237.900	0.000
237.950	0.000
238.000	0.000
238.050	0.000
238.100	0.000
238.150	0.000
238.200	0.000
238.250	0.000
238.300	0.000
238.350	0.000
238.400	0.000
238.450	0.000
238.500	0.000
238.550	0.000
238.600	0.000
238.650	0.000
238.700	0.000
238.750	0.000
238.800	0.000
238.850	0.000
238.900	0.000
238.950	0.000
239.000	0.000
239.050	0.000
239.100	0.000
239.150	0.000
239.200	0.000
239.250	0.000
239.300	0.000
239.350	0.000
239.400	0.000
239.450	0.000
239.500	0.000
239.550	0.000
239.600	0.000
239.650	0.000
239.700	0.000
239.750	0.000
239.800	0.000
239.850	0.000
239.900	0.000
239.950	0.000
240.000	0.000
240.050	0.000
240.100	0.000
240.150	0.000
240.200	0.000
240.250	0.000
240.300	0.000
240.350	0.000
240.400	-0.005
240.450	0.000
240.500	-0.005
240.550	-0.010
240.600	-0.015
240.650	-0.015
240.700	-0.039
240.750	-0.073
240.800	0.083
240.850	0.005
240.900	0.015
240.950	0.005
241.000	-0.020
241.050	-0.244
241.100	0.078
241.150	-0.034
241.200	-0.054
241.250	-0.024
241.300	0.005
241.350	0.005
241.400	0.581
241.450	0.000
241.500	0.000
241.550	-0.015
241.600	-0.078
241.650	0.190
241.700	-0.005
241.750	-0.044
241.800	-0.024
241.850	0.000
241.900	0.005
241.950	0.117
242.000	0.044
242.050	-0.010
242.100	0.000
242.150	-0.020
242.200	-0.244
242.250	0.049
242.300	-0.015
242.350	-0.010
242.400	0.000
242.450	0.000
242.500	-0.908
242.550	0.020
242.600	-0.010
242.650	-0.039
242.700	0.000
242.750	-0.015
242.800	-0.078
242.850	-0.142
242.900	-0.039
242.950	0.000
243.000	0.020
243.050	0.005
243.100	-0.039
243.150	0.010
243.200	0.000
243.250	0.000
243.300	-0.010
243.350	-0.034
243.400	-0.059
243.450	-0.015
243.500	-0.015
243.550	-0.010
243.600	0.000
243.650	0.000
243.700	-0.063
243.750	0.039
243.800	-0.039
243.850	0.000
243.900	0.005
243.950	-0.049
244.000	0.176
244.050	-0.024
244.100	0.049
244.150	0.015
244.200	-0.005
244.250	0.000
244.300	0.000
244.350	0.005
244.400	-0.034
244.450	0.015
244.500	0.010
244.550	-0.015
244.600	-0.068
244.650	0.005
244.700	-0.020
244.750	0.010
244.800	0.010
244.850	-0.010
244.900	0.010
244.950	0.107
245.000	-0.132
245.050	0.000
245.100	-0.015
245.150	-0.063
245.200	-0.073
245.250	-0.024
245.300	-0.015
245.350	-0.015
245.400	-0.015
245.450	-0.015
245.500	-0.015
245.550	-0.015
245.600	-0.015
245.650	-0.015
245.700	-0.005
245.750	-0.005
245.800	0.000
245.850	0.000
245.900	0.000
245.950	0.000
246.000	0.000
246.050	0.000
246.100	0.000
246.150	0.000
246.200	0.000
246.250	0.000
246.300	0.000
246.350	0.000
246.400	0.005
246.450	0.068
246.500	0.024
246.550	-0.020
246.600	-0.015
246.650	-0.010
246.700	0.005
246.750	0.000
246.800	0.015
246.850	0.015
246.900	0.010
246.950	-0.010
247.000	-0.010
247.050	0.000
247.100	0.000
247.150	-0.015
247.200	0.034
247.250	0.024
247.300	0.005
247.350	0.015
247.400	0.044
247.450	0.024
247.500	-0.430
247.550	-0.405
247.600	-0.063
247.650	-0.015
247.700	0.005
247.750	0.015
247.800	-0.005
247.850	-1.455
247.900	-0.410
247.950	-0.010
248.000	-0.005
248.050	-0.010
248.100	-0.049
248.150	-0.034
248.200	0.000
248.250	0.024
248.300	0.005
248.350	-0.039
248.400	-0.010
248.450	0.181
248.500	0.005
248.550	0.005
248.600	-0.020
248.650	-0.054
248.700	-0.654
248.750	0.156
248.800	-0.005
248.850	-0.034
248.900	-0.015
248.950	0.000
249.000	0.132
249.050	-0.059
249.100	0.117
249.150	0.010
249.200	0.000
249.250	-0.020
249.300	-0.059
249.350	0.000
249.400	0.054
249.450	0.020
249.500	0.000
249.550	0.000
249.600	0.000
249.650	0.000
249.700	0.000
249.750	0.000
249.800	0.000
249.850	0.000
249.900	0.000
249.950	0.000
250.000	0.000
250.050	0.000
250.100	0.000
250.150	0.000
250.200	0.000
250.250	0.000
250.300	0.000
250.350	0.000
250.400	0.000
250.450	0.000
250.500	0.000
250.550	0.000
250.600	0.000
250.650	0.000
250.700	0.000
250.750	0.000
250.800	0.000
250.850	0.000
250.900	0.000
250.950	-0.005
251.000	0.000
251.050	-0.039
251.100	-0.010
251.150	-0.010
251.200	0.171
251.250	0.005
251.300	0.000
251.350	0.000
251.400	-0.015
251.450	-0.137
251.500	0.166
251.550	-0.039
251.600	0.005
251.650	0.029
251.700	0.005
251.750	-0.010
251.800	0.000
251.850	0.049
251.900	0.005
251.950	0.000
252.000	-0.005
252.050	-0.015
252.100	-0.068
252.150	-0.029
252.200	-0.005
252.250	0.029
252.300	0.020
252.350	-0.039
252.400	0.000
252.450	-0.059
252.500	0.088
252.550	0.005
252.600	0.005
252.650	0.000
252.700	-0.015
252.750	-0.503
252.800	0.679
252.850	-0.303
252.900	0.054
252.950	-0.093
253.000	-0.034
253.050	0.000
253.100	0.005
253.150	0.059
253.200	-0.039
253.250	0.024
253.300	0.005
253.350	-0.005
253.400	0.000
253.450	-0.010
253.500	-0.049
253.550	-0.034
253.600	-0.015
253.650	0.005
253.700	-0.015
253.750	0.020
253.800	0.020
253.850	0.000
253.900	0.000
253.950	-0.015
254.000	-0.327
254.050	-0.093
254.100	0.156
254.150	-0.098
254.200	-0.117
254.250	-0.034
254.300	0.000
254.350	0.010
254.400	0.000
254.450	0.366
254.500	0.078
254.550	0.000
254.600	0.000
254.650	0.000
254.700	-0.010
254.750	-0.024
254.800	-0.024
254.850	0.000
254.900	0.005
254.950	-0.015
255.000	0.000
255.050	0.059
255.100	0.015
255.150	0.000
255.200	0.005
255.250	-0.005
255.300	-0.024
255.350	0.376
255.400	0.049
255.450	0.103
255.500	0.049
255.550	0.010
255.600	-0.010
255.650	-0.010
255.700	-0.708
255.750	-0.063
255.800	0.034
255.850	0.010
255.900	0.000
255.950	-0.010
256.000	-0.010
256.050	-0.015
256.100	-0.029
256.150	-0.020
256.200	0.000
256.250	0.005
256.300	0.010
256.350	0.005
256.400	0.005
256.450	0.005
256.500	0.005
256.550	0.005
256.600	0.000
256.650	0.000
256.700	-0.010
256.750	-0.044
256.800	0.000
256.850	-0.005
256.900	0.000
256.950	0.000
257.000	0.000
257.050	0.000
257.100	0.000
257.150	0.000
257.200	-0.010
257.250	-0.054
257.300	-0.059
257.350	-0.015
257.400	0.229
257.450	0.044
257.500	-0.010
257.550	-0.010
257.600	0.000
257.650	0.000
257.700	0.000
257.750	0.000
257.800	0.005
257.850	0.000
257.900	-0.005
257.950	0.000
258.000	0.000
258.050	0.000
258.100	0.000
258.150	0.000
258.200	0.000
258.250	0.000
258.300	0.000
258.350	0.000
258.400	0.000
258.450	-0.005
258.500	0.000
258.550	0.000
258.600	-0.010
258.650	-0.015
258.700	-0.020
258.750	0.000
258.800	-0.005
258.850	0.000
258.900	0.000
258.950	-0.005
259.000	0.000
259.050	0.000
259.100	0.005
259.150	-0.005
259.200	0.000
259.250	-0.015
259.300	-0.020
259.350	-0.005
259.400	0.005
259.450	0.000
259.500	0.000
259.550	0.000
259.600	0.000
259.650	0.000
259.700	0.000
259.750	0.000
259.800	0.000
259.850	0.000
259.900	-0.005
259.950	0.000
260.000	0.000
260.050	0.000
260.100	0.000
260.150	-0.005
260.200	0.000
260.250	0.000
260.300	0.000
260.350	0.000
260.400	-0.005
260.450	0.000
260.500	0.000
260.550	0.000
260.600	0.000
260.650	0.000
260.700	0.000
260.750	-0.005
260.800	-0.024
260.850	0.015
260.900	-0.005
260.950	0.000
261.000	0.005
261.050	-0.005
261.100	0.000
261.150	-0.005
261.200	0.010
261.250	0.000
261.300	0.005
261.350	-0.010
261.400	-0.010
261.450	-0.015
261.500	-0.015
261.550	-0.010
261.600	0.000
261.650	0.000
261.700	0.010
261.750	0.024
261.800	0.005
261.850	0.000
261.900	0.000
261.950	0.000
262.000	0.000
262.050	0.005
262.100	0.000
262.150	0.000
262.200	0.039
262.250	0.010
262.300	0.000
262.350	0.005
262.400	0.000
262.450	0.000
262.500	0.000
262.550	0.000
262.600	0.000
262.650	0.000
262.700	0.000
262.750	0.000
262.800	0.000
262.850	0.000
262.900	0.000
262.950	0.000
263.000	-0.010
263.050	0.000
263.100	0.000
263.150	0.000
263.200	0.020
263.250	0.000
263.300	0.000
263.350	0.000
263.400	0.000
263.450	0.000
263.500	0.000
263.550	0.000
263.600	0.000
263.650	0.000
263.700	0.000
263.750	0.000
263.800	0.000
263.850	0.000
263.900	0.000
263.950	-0.005
264.000	-0.005
264.050	0.000
264.100	0.000
264.150	0.000
264.200	0.000
264.250	0.000
264.300	0.000
264.350	0.000
264.400	0.000
264.450	0.000
264.500	0.000
264.550	0.000
264.600	0.000
264.650	-0.024
264.700	-0.024
264.750	-0.010
264.800	0.000
264.850	0.000
264.900	0.000
264.950	0.000
265.000	0.000
265.050	0.000
265.100	0.000
265.150	0.000
265.200	0.000
265.250	0.005
265.300	0.000
265.350	0.000
265.400	0.000
265.450	0.000
265.500	0.000
265.550	0.000
265.600	0.000
265.650	0.000
265.700	0.000
265.750	0.000
265.800	0.000
265.850	0.000
265.900	0.000
265.950	0.000
266.000	0.000
266.050	0.000
266.100	0.000
266.150	0.000
266.200	0.000
266.250	0.000
266.300	-0.005
266.350	0.000
266.400	0.000
266.450	0.010
266.500	0.000
266.550	0.000
266.600	0.000
266.650	0.000
266.700	0.000
266.750	0.000
266.800	-0.054
266.850	-0.034
266.900	-0.029
266.950	0.015
267.000	0.000
267.050	-0.010
267.100	-0.107
267.150	-0.044
267.200	-0.015
267.250	-0.034
267.300	0.005
267.350	0.059
267.400	0.015
267.450	0.020
267.500	0.073
267.550	-0.078
267.600	0.498
267.650	0.068
267.700	-0.015
267.750	-0.034
267.800	-0.015
267.850	0.005
267.900	-0.278
267.950	-0.107
268.000	-0.044
268.050	0.000
268.100	0.000
268.150	-0.005
268.200	-0.068
268.250	-0.063
268.300	-0.039
268.350	0.000
268.400	0.059
268.450	0.020
268.500	0.010
268.550	0.020
268.600	-0.020
268.650	-0.146
268.700	-0.044
268.750	0.005
268.800	0.039
268.850	0.015
268.900	-0.010
268.950	-0.010
269.000	-0.337
269.050	0.151
269.100	-0.005
269.150	0.024
269.200	-0.020
269.250	0.161
269.300	-0.132
269.350	-0.034
269.400	0.010
269.450	0.015
269.500	-0.005
269.550	-0.542
269.600	0.044
269.650	-0.015
269.700	0.000
269.750	-0.010
269.800	-0.156
269.850	0.098
269.900	0.112
269.950	0.020
270.000	-0.020
270.050	-0.010
270.100	-0.161
270.150	0.210
270.200	0.181
270.250	0.000
270.300	0.020
270.350	-0.029
270.400	0.010
270.450	0.015
270.500	0.024
270.550	0.029
270.600	-0.010
270.650	-0.010
270.700	0.068
270.750	0.000
270.800	0.005
270.850	0.010
270.900	-0.015
270.950	-0.410
271.000	-0.020
271.050	-0.078
271.100	-0.024
271.150	0.010
271.200	0.000
271.250	-0.010
271.300	-0.420
271.350	-0.039
271.400	-0.054
271.450	0.015
271.500	-0.015
271.550	-0.444
271.600	0.020
271.650	-0.010
271.700	-0.034
271.750	-0.010
271.800	0.010
271.850	0.000
271.900	-0.532
271.950	-0.034
272.000	-0.098
272.050	0.073
272.100	-0.010
272.150	-0.405
272.200	-0.093
272.250	-0.039
272.300	-0.020
272.350	0.010
272.400	0.005
272.450	-0.010
272.500	0.117
272.550	0.229
272.600	0.015
272.650	0.000
272.700	-0.088
272.750	0.132
272.800	-0.034
272.850	-0.039
272.900	-0.020
272.950	0.000
273.000	0.000
273.050	-1.709
273.100	-0.073
273.150	0.200
273.200	0.078
273.250	0.039
273.300	-0.054
273.350	0.020
273.400	0.039
273.450	0.044
273.500	0.005
273.550	-0.010
273.600	0.000
273.650	0.425
273.700	0.044
273.750	0.142
273.800	0.044
273.850	-0.005
273.900	-0.161
273.950	0.122
274.000	-0.059
274.050	-0.039
274.100	-0.010
274.150	0.005
274.200	0.000
274.250	0.000
274.300	0.439
274.350	-0.005
274.400	-0.005
274.450	-0.015
274.500	-0.054
274.550	0.107
274.600	0.039
274.650	0.005
274.700	-0.010
274.750	0.000
274.800	0.005
274.850	0.000
274.900	0.410
274.950	0.186
275.000	0.015
275.050	0.034
275.100	-0.435
275.150	0.024
275.200	-0.029
275.250	-0.029
275.300	-0.005
275.350	0.005
275.400	0.000
275.450	-0.176
275.500	-0.034
275.550	0.010
275.600	0.015
275.650	-0.015
275.700	-0.132
275.750	0.049
275.800	0.083
275.850	0.039
275.900	0.015
275.950	0.005
276.000	-0.005
276.050	-2.222
276.100	0.127
276.150	-0.024
276.200	0.000
276.250	-0.024
276.300	-0.161
276.350	0.000
276.400	0.151
276.450	-0.137
276.500	-0.049
276.550	0.005
276.600	0.000
276.650	0.000
276.700	0.171
276.750	0.020
276.800	0.010
276.850	-0.020
276.900	-0.073
276.950	0.161
277.000	0.000
277.050	-0.005
277.100	0.000
277.150	0.000
277.200	0.000
277.250	0.547
277.300	0.015
277.350	-0.083
277.400	0.000
277.450	-0.015
277.500	0.000
277.550	0.005
277.600	-0.005
277.650	0.000
277.700	0.015
277.750	0.000
277.800	0.000
277.850	0.000
277.900	0.000
277.950	0.000
278.000	0.000
278.050	0.000
278.100	0.000
278.150	0.000
278.200	-0.005
278.250	-0.005
278.300	-0.010
278.350	-0.005
278.400	-0.005
278.450	-0.005
278.500	0.000
278.550	0.000
278.600	0.005
278.650	0.005
278.700	0.000
278.750	-0.005
278.800	0.000
278.850	0.000
278.900	0.000
278.950	0.000
279.000	0.000
279.050	0.000
279.100	0.000
279.150	0.000
279.200	0.000
279.250	0.000
279.300	0.000
279.350	0.000
279.400	0.000
279.450	0.000
279.500	0.000
279.550	0.000
279.600	0.000
279.650	0.000
279.700	0.000
279.750	-0.005
279.800	0.000
279.850	0.000
279.900	-0.005
279.950	-0.005
280.000	0.000
280.050	0.000
280.100	0.024
280.150	0.000
280.200	0.000
280.250	0.000
280.300	0.000
280.350	0.000
280.400	0.000
280.450	0.000
280.500	0.000
280.550	-0.005
280.600	0.000
280.650	0.000
280.700	0.000
280.750	0.000
280.800	-0.005
280.850	0.000
280.900	0.000
280.950	0.000
281.000	-0.005
281.050	0.000
281.100	0.000
281.150	-0.015
281.200	-0.039
281.250	-0.010
281.300	0.039
281.350	-0.005
281.400	0.010
281.450	0.000
281.500	-0.024
281.550	-0.117
281.600	0.000
281.650	0.000
281.700	0.005
281.750	0.000
281.800	0.000
281.850	0.000
281.900	0.000
281.950	-0.015
282.000	0.010
282.050	-0.039
282.100	0.005
282.150	0.000
282.200	-0.029
282.250	-0.137
282.300	0.010
282.350	0.000
282.400	0.000
282.450	0.000
282.500	0.000
282.550	0.000
282.600	0.000
282.650	0.332
282.700	-0.068
282.750	-0.078
282.800	0.039
282.850	0.044
282.900	-0.015
282.950	0.034
283.000	0.010
283.050	0.000
283.100	0.000
283.150	0.000
283.200	0.000
283.250	0.000
283.300	0.200
283.350	-0.200
283.400	-0.054
283.450	0.005
283.500	0.005
283.550	-0.005
283.600	-0.039
283.650	-0.044
283.700	-0.010
283.750	0.000
283.800	-0.005
283.850	0.000
283.900	0.000
283.950	-0.005
284.000	0.000
284.050	0.000
284.100	0.010
284.150	0.000
284.200	0.029
284.250	0.063
284.300	0.015
284.350	0.010
284.400	0.005
284.450	0.010
284.500	-0.049
284.550	0.293
284.600	0.039
284.650	0.015
284.700	-0.010
284.750	0.000
284.800	0.000
284.850	0.000
284.900	0.000
284.950	0.000
285.000	0.000
285.050	0.732
285.100	-0.146
285.150	0.005
285.200	0.000
285.250	0.010
285.300	-0.015
285.350	-0.005
285.400	0.005
285.450	0.000
285.500	0.000
285.550	0.000
285.600	0.000
285.650	0.000
285.700	0.005
285.750	0.005
285.800	0.000
285.850	0.005
285.900	0.000
285.950	0.000
286.000	0.000
286.050	0.000
286.100	0.000
286.150	0.000
286.200	0.000
286.250	0.000
286.300	0.000
286.350	0.000
286.400	0.000
286.450	0.000
286.500	0.000
286.550	0.000
286.600	0.000
286.650	0.000
286.700	0.000
286.750	0.000
286.800	0.000
286.850	0.000
286.900	0.000
286.950	0.000
287.000	0.000
287.050	0.000
287.100	0.000
287.150	0.000
287.200	-0.005
287.250	0.000
287.300	0.000
287.350	0.000
287.400	0.000
287.450	0.000
287.500	0.000
287.550	0.000
287.600	0.000
287.650	0.000
287.700	0.000
287.750	0.000
287.800	0.000
287.850	0.000
287.900	-0.005
287.950	0.000
288.000	0.000
288.050	0.000
288.100	0.000
288.150	0.000
288.200	0.000
288.250	0.000
288.300	0.000
288.350	0.000
288.400	0.000
288.450	0.000
288.500	0.000
288.550	0.000
288.600	0.000
288.650	0.000
288.700	0.000
288.750	0.000
288.800	0.000
288.850	0.000
288.900	0.000
288.950	0.000
289.000	0.000
289.050	-0.005
289.100	-0.005
289.150	-0.005
289.200	-0.005
289.250	0.000
289.300	-0.005
289.350	-0.010
289.400	0.000
289.450	0.000
289.500	0.000
289.550	0.000
289.600	0.000
289.650	0.005
289.700	0.000
289.750	0.000
289.800	0.000
289.850	0.000
289.900	0.000
289.950	0.000
290.000	0.010
290.050	0.005
290.100	0.000
290.150	0.000
290.200	0.000
290.250	0.000
290.300	0.000
290.350	0.005
290.400	-0.005
290.450	0.000
290.500	0.000
290.550	0.000
290.600	0.000
290.650	0.000
290.700	0.000
290.750	-0.005
290.800	-0.005
290.850	0.000
290.900	0.000
290.950	0.000
291.000	0.000
291.050	0.000
291.100	0.000
291.150	0.000
291.200	0.000
291.250	0.000
291.300	0.000
291.350	0.000
291.400	0.000
291.450	0.000
291.500	0.000
291.550	0.000
291.600	0.000
291.650	0.000
291.700	0.000
291.750	0.000
291.800	0.000
291.850	0.000
291.900	0.000
291.950	0.000
292.000	0.000
292.050	0.000
292.100	0.000
292.150	0.000
292.200	0.000
292.250	0.000
292.300	0.000
292.350	-0.010
292.400	0.000
292.450	0.000
292.500	0.000
292.550	0.000
292.600	0.000
292.650	0.000
292.700	0.000
292.750	0.000
292.800	0.000
292.850	0.000
292.900	0.000
292.950	-0.005
293.000	0.000
293.050	0.000
293.100	0.000
293.150	0.000
293.200	0.000
293.250	0.000
293.300	0.000
293.350	0.000
293.400	0.000
293.450	0.000
293.500	0.000
293.550	0.000
293.600	0.000
293.650	0.000
293.700	0.000
293.750	-0.005
293.800	-0.005
293.850	0.000
293.900	-0.010
293.950	-0.029
294.000	-0.015
294.050	0.005
294.100	0.029
294.150	0.000
294.200	0.005
294.250	0.015
294.300	0.005
294.350	-0.024
294.400	0.342
294.450	0.059
294.500	-0.005
294.550	0.000
294.600	0.000
294.650	0.000
294.700	0.000
294.750	0.000
294.800	0.000
294.850	1.099
294.900	0.107
294.950	0.010
295.000	0.000
295.050	0.000
295.100	-0.005
295.150	-0.005
295.200	-0.015
295.250	-0.015
295.300	-0.015
295.350	-0.010
295.400	-0.005
295.450	0.000
295.500	0.024
295.550	0.000
295.600	0.005
295.650	0.005
295.700	0.000
295.750	0.000
295.800	-0.005
295.850	-0.059
295.900	0.024
295.950	-0.049
296.000	0.005
296.050	-0.005
296.100	0.000
296.150	0.000
296.200	0.000
296.250	0.000
296.300	0.000
296.350	0.000
296.400	0.000
296.450	3.545
296.500	0.405
296.550	0.005
296.600	-0.010
296.650	0.024
296.700	0.010
296.750	0.000
296.800	-0.020
296.850	-0.015
296.900	0.000
296.950	0.000
297.000	-0.005
297.050	0.000
297.100	0.000
297.150	0.000
297.200	0.005
297.250	0.000
297.300	0.000
297.350	0.000
297.400	0.000
297.450	-0.005
297.500	-0.005
297.550	-0.005
297.600	0.000
297.650	0.000
297.700	0.000
297.750	0.000
297.800	0.000
297.850	0.000
297.900	0.000
297.950	0.000
298.000	0.000
298.050	-0.005
298.100	0.000
298.150	-0.005
298.200	0.000
298.250	-0.005
298.300	0.000
298.350	0.000
298.400	0.000
298.450	0.000
298.500	-0.010
298.550	0.000
298.600	0.000
298.650	-0.010
298.700	0.000
298.750	0.010
298.800	0.005
298.850	0.000
298.900	0.000
298.950	0.005
299.000	0.000
299.050	0.005
299.100	0.000
299.150	-0.010
299.200	-0.176
299.250	-0.122
299.300	-0.044
299.350	0.005
299.400	0.005
299.450	0.000
299.500	0.000
299.550	0.000
299.600	0.000
299.650	0.000
299.700	0.000
299.750	0.000
299.800	1.514
299.850	-0.044
299.900	-0.020
299.950	0.015
300.000	-0.010
300.050	0.000
300.100	-0.005
300.150	0.000
300.200	-0.010
300.250	0.000
300.300	0.000
300.350	0.000
300.400	0.000
300.450	0.005
300.500	0.010
300.550	0.000
300.600	0.000
300.650	0.000
300.700	-0.005
300.750	0.000
300.800	0.000
300.850	0.000
300.900	0.000
300.950	0.000
301.000	0.000
301.050	0.000
301.100	0.000
301.150	0.000
301.200	0.000
301.250	0.000
301.300	0.000
301.350	0.000
301.400	0.000
301.450	0.000
301.500	0.000
301.550	0.000
301.600	0.000
301.650	0.000
301.700	0.000
301.750	0.000
301.800	-0.005
301.850	0.000
301.900	0.000
301.950	0.000
302.000	0.000
302.050	0.005
302.100	-0.005
302.150	-0.010
302.200	0.005
302.250	0.000
302.300	-0.005
302.350	0.000
302.400	0.005
302.450	0.005
302.500	0.000
302.550	0.000
302.600	0.000
302.650	0.000
302.700	0.000
302.750	0.000
302.800	0.000
302.850	-0.015
302.900	-0.024
302.950	-0.078
303.000	0.054
303.050	0.020
303.100	-0.005
303.150	0.005
303.200	-0.005
303.250	0.000
303.300	0.000
303.350	0.000
303.400	-0.005
303.450	-0.005
303.500	0.000
303.550	-0.010
303.600	-0.034
303.650	0.225
303.700	0.083
303.750	0.000
303.800	-0.005
303.850	0.000
303.900	0.000
303.950	0.000
304.000	0.000
304.050	0.000
304.100	0.000
304.150	0.000
304.200	-3.174
304.250	-0.044
304.300	0.020
304.350	-0.024
304.400	0.005
304.450	-0.010
304.500	0.000
304.550	0.000
304.600	0.000
304.650	0.000
304.700	0.000
304.750	0.000
304.800	0.000
304.850	-0.005
304.900	0.005
304.950	0.005
305.000	0.010
305.050	0.005
305.100	0.000
305.150	0.000
305.200	0.000
305.250	0.000
305.300	0.000
305.350	0.000
305.400	0.000
305.450	0.000
305.500	0.000
305.550	0.000
305.600	0.000
305.650	0.000
305.700	0.000
305.750	0.000
305.800	0.000
305.850	0.000
305.900	0.000
305.950	-0.005
306.000	-0.015
306.050	0.000
306.100	0.000
306.150	0.000
306.200	-0.005
306.250	0.000
306.300	0.000
306.350	0.000
306.400	-0.005
306.450	-0.020
306.500	-0.054
306.550	0.005
306.600	0.054
306.650	0.005
306.700	0.000
306.750	0.000
306.800	0.000
306.850	0.000
306.900	0.000
306.950	0.000
307.000	0.000
307.050	0.000
307.100	0.000
307.150	-0.005
307.200	0.000
307.250	0.000
307.300	0.000
307.350	0.000
307.400	-0.005
307.450	0.000
307.500	0.000
307.550	0.000
307.600	0.000
307.650	0.000
307.700	0.000
307.750	0.000
307.800	0.000
307.850	0.000
307.900	0.000
307.950	0.000
308.000	0.000
308.050	0.000
308.100	0.000
308.150	0.000
308.200	0.000
308.250	0.000
308.300	0.000
308.350	0.000
308.400	0.000
308.450	0.000
308.500	0.000
308.550	0.000
308.600	0.000
308.650	0.005
308.700	0.000
308.750	0.000
308.800	0.000
308.850	0.000
308.900	0.000
308.950	0.000
309.000	0.000
309.050	0.000
309.100	0.000
309.150	0.000
309.200	0.000
309.250	0.000
309.300	0.000
309.350	0.000
309.400	0.000
309.450	0.000
309.500	0.000
309.550	0.000
309.600	0.000
309.650	0.005
309.700	0.000
309.750	-0.005
309.800	0.000
309.850	0.000
309.900	0.000
309.950	0.000
310.000	0.000
310.050	0.000
310.100	0.000
310.150	0.000
310.200	0.000
310.250	0.000
310.300	-0.005
310.350	0.000
310.400	0.000
310.450	0.000
310.500	0.000
310.550	0.000
310.600	0.000
310.650	0.000
310.700	0.000
310.750	0.000
310.800	0.000
310.850	0.000
310.900	0.000
310.950	0.000
311.000	0.000
311.050	0.000
311.100	0.000
311.150	0.000
311.200	0.000
311.250	0.000
311.300	0.000
311.350	0.000
311.400	0.000
311.450	0.000
311.500	0.000
311.550	0.000
311.600	0.000
311.650	0.000
311.700	-0.005
311.750	0.000
311.800	0.000
311.850	0.000
311.900	0.000
311.950	0.005
312.000	0.000
312.050	0.000
312.100	0.000
312.150	0.000
312.200	0.000
312.250	0.000
312.300	0.000
312.350	0.005
312.400	-0.010
312.450	-0.005
312.500	-0.010
312.550	0.000
312.600	-0.005
312.650	-0.005
312.700	-0.005
312.750	0.024
312.800	0.020
312.850	-0.005
312.900	-0.015
312.950	0.000
313.000	-0.005
313.050	-0.005
313.100	-0.015
313.150	-0.020
313.200	0.000
313.250	-0.005
313.300	0.000
313.350	0.005
313.400	0.000
313.450	0.000
313.500	-0.005
313.550	0.005
313.600	0.000
313.650	0.015
313.700	-0.015
313.750	-0.015
313.800	0.010
313.850	0.000
313.900	-0.010
313.950	0.000
314.000	0.000
314.050	-0.059
314.100	-0.024
314.150	-0.010
314.200	-0.015
314.250	0.005
314.300	0.000
314.350	0.005
314.400	0.000
314.450	-0.005
314.500	-0.005
314.550	-0.010
314.600	-0.015
314.650	0.005
314.700	-0.015
314.750	0.005
314.800	0.000
314.850	0.000
314.900	0.005
314.950	-0.005
315.000	0.000
315.050	0.010
315.100	-0.010
315.150	-0.005
315.200	0.000
315.250	0.000
315.300	-0.024
315.350	0.005
315.400	0.005
315.450	0.000
315.500	-0.005
315.550	-0.005
315.600	0.000
315.650	-0.005
315.700	0.005
315.750	0.005
315.800	0.000
315.850	0.000
315.900	0.010
315.950	0.000
316.000	0.005
316.050	-0.005
316.100	0.015
316.150	0.005
316.200	0.000
316.250	0.010
316.300	0.000
316.350	0.000
316.400	0.005
316.450	0.000
316.500	-0.005
316.550	0.000
316.600	0.000
316.650	0.000
316.700	0.000
316.750	-0.005
316.800	-0.005
316.850	0.000
316.900	-0.005
316.950	0.000
317.000	-0.005
317.050	0.000
317.100	0.015
317.150	0.005
317.200	0.000
317.250	-0.024
317.300	-0.005
317.350	-0.015
317.400	0.005
317.450	-0.005
317.500	-0.010
317.550	-0.005
317.600	0.005
317.650	-0.005
317.700	0.005
317.750	0.000
317.800	0.015
317.850	0.005
317.900	-0.024
317.950	-0.005
318.000	0.000
318.050	0.000
318.100	0.000
318.150	-0.005
318.200	-0.005
318.250	-0.010
318.300	-0.015
318.350	0.000
318.400	0.000
318.450	0.000
318.500	0.005
318.550	0.005
318.600	0.005
318.650	0.000
318.700	0.005
318.750	-0.005
318.800	0.000
318.850	0.000
318.900	0.000
318.950	0.000
319.000	0.000
319.050	0.000
319.100	0.000
319.150	-0.005
319.200	0.000
319.250	0.000
319.300	0.000
319.350	-0.005
319.400	0.005
319.450	-0.005
319.500	0.000
319.550	0.000
319.600	0.000
319.650	0.000
319.700	0.000
319.750	-0.010
319.800	0.000
319.850	-0.005
319.900	0.000
319.950	-0.015
320.000	0.000
320.050	0.005
320.100	0.005
320.150	0.000
320.200	0.000
320.250	-0.005
320.300	0.000
320.350	0.000
320.400	0.000
320.450	-0.010
320.500	0.005
320.550	0.000
320.600	0.000
320.650	-0.034
320.700	-0.024
320.750	0.000
320.800	0.010
320.850	0.039
320.900	0.005
320.950	0.000
321.000	-0.005
321.050	0.000
321.100	0.000
321.150	0.000
321.200	0.000
321.250	0.000
321.300	0.000
321.350	-0.005
321.400	0.005
321.450	0.000
321.500	0.000
321.550	0.005
321.600	0.000
321.650	-0.010
321.700	-0.015
321.750	0.005
321.800	0.010
321.850	0.000
321.900	0.000
321.950	0.000
322.000	0.000
322.050	0.000
322.100	0.000
322.150	0.000
322.200	0.000
322.250	0.000
322.300	0.000
322.350	0.000
322.400	0.000
322.450	0.000
322.500	0.000
322.550	0.000
322.600	0.000
322.650	0.000
322.700	0.000
322.750	0.000
322.800	0.000
322.850	0.000
322.900	0.000
322.950	0.000
323.000	-0.005
323.050	0.000
323.100	-0.005
323.150	0.000
323.200	0.000
323.250	0.000
323.300	-0.005
323.350	0.000
323.400	0.000
323.450	0.000
323.500	0.000
323.550	0.000
323.600	0.000
323.650	0.000
323.700	-0.029
323.750	0.000
323.800	0.000
323.850	-0.005
323.900	0.000
323.950	0.000
324.000	0.000
324.050	0.000
324.100	0.000
324.150	0.000
324.200	0.000
324.250	0.000
324.300	0.000
324.350	-0.005
324.400	-0.010
324.450	0.000
324.500	0.005
324.550	0.000
324.600	0.000
324.650	0.000
324.700	0.000
324.750	0.000
324.800	0.010
324.850	0.000
324.900	0.000
324.950	0.000
325.000	0.000
325.050	0.000
325.100	0.000
325.150	-0.005
325.200	0.000
325.250	0.000
325.300	0.000
325.350	0.000
325.400	0.000
325.450	0.000
325.500	0.000
325.550	0.000
325.600	0.000
325.650	0.000
325.700	-0.005
325.750	0.000
325.800	0.000
325.850	0.000
325.900	0.000
325.950	0.000
326.000	-0.005
326.050	0.000
326.100	-0.005
326.150	0.000
326.200	0.000
326.250	0.000
326.300	0.000
326.350	-0.005
326.400	0.000
326.450	0.020
326.500	-0.005
326.550	0.000
326.600	0.000
326.650	0.015
326.700	0.000
326.750	-0.010
326.800	0.005
326.850	0.010
326.900	0.000
326.950	-0.005
327.000	-0.010
327.050	0.000
327.100	-0.010
327.150	0.020
327.200	-0.010
327.250	0.000
327.300	0.000
327.350	0.000
327.400	0.000
327.450	0.000
327.500	0.000
327.550	0.000
327.600	0.000
327.650	0.000
327.700	0.005
327.750	0.000
327.800	0.000
327.850	0.000
327.900	-0.005
327.950	0.000
328.000	-0.005
328.050	0.000
328.100	0.000
328.150	0.005
328.200	0.000
328.250	0.000
328.300	0.005
328.350	0.010
328.400	0.000
328.450	0.000
328.500	0.000
328.550	0.000
328.600	0.000
328.650	0.000
328.700	0.000
328.750	0.000
328.800	0.000
328.850	0.000
328.900	0.000
328.950	0.000
329.000	0.005
329.050	0.000
329.100	0.005
329.150	0.000
329.200	0.000
329.250	0.005
329.300	0.005
329.350	0.000
329.400	0.000
329.450	0.000
329.500	0.000
329.550	0.000
329.600	0.000
329.650	0.000
329.700	0.000
329.750	0.000
329.800	0.000
329.850	0.000
329.900	0.000
329.950	0.000
330.000	0.000
330.050	0.000
330.100	0.000
330.150	0.000
330.200	0.000
330.250	0.000
330.300	0.000
330.350	0.000
330.400	0.000
330.450	0.005
330.500	0.000
330.550	-0.005
330.600	-0.005
330.650	-0.005
330.700	0.000
330.750	0.000
330.800	0.000
330.850	0.000
330.900	-0.005
330.950	0.000
331.000	0.000
331.050	0.000
331.100	0.005
331.150	0.029
331.200	0.015
331.250	0.020
331.300	0.000
331.350	0.000
331.400	0.000
331.450	0.000
331.500	0.000
331.550	0.000
331.600	0.005
331.650	0.000
331.700	0.000
331.750	0.000
331.800	0.000
331.850	0.000
331.900	-0.010
331.950	0.000
332.000	0.005
332.050	0.000
332.100	0.000
332.150	0.005
332.200	-0.010
332.250	-0.024
332.300	-0.015
332.350	0.000
332.400	0.005
332.450	0.005
332.500	0.000
332.550	0.000
332.600	0.005
332.650	0.000
332.700	0.000
332.750	0.000
332.800	-0.005
332.850	-0.005
332.900	0.000
332.950	0.000
333.000	0.005
333.050	-0.005
333.100	0.000
333.150	0.000
333.200	0.005
333.250	-0.005
333.300	0.000
333.350	0.000
333.400	0.005
333.450	0.000
333.500	0.000
333.550	0.000
333.600	0.000
333.650	0.000
333.700	0.000
333.750	0.000
333.800	0.000
333.850	0.000
333.900	0.000
333.950	0.000
334.000	0.000
334.050	0.000
334.100	0.000
334.150	0.000
334.200	0.000
334.250	0.000
334.300	0.000
334.350	0.000
334.400	0.000
334.450	0.000
334.500	-0.015
334.550	-0.005
334.600	0.000
334.650	0.000
334.700	0.000
334.750	0.000
334.800	0.005
334.850	0.000
334.900	0.000
334.950	-0.005
335.000	0.000
335.050	-0.005
335.100	0.000
335.150	0.000
335.200	-0.005
335.250	0.000
335.300	0.000
335.350	0.000
335.400	0.000
335.450	0.000
335.500	0.000
335.550	-0.010
335.600	0.000
335.650	0.000
335.700	0.000
335.750	0.000
335.800	0.000
335.850	0.000
335.900	0.000
335.950	0.000
336.000	0.000
336.050	0.000
336.100	0.000
336.150	0.000
336.200	0.000
336.250	0.000
336.300	0.000
336.350	0.000
336.400	0.000
336.450	0.000
336.500	0.000
336.550	0.000
336.600	0.000
336.650	0.000
336.700	0.000
336.750	0.000
336.800	0.000
336.850	0.000
336.900	0.000
336.950	0.000
337.000	0.000
337.050	0.000
337.100	0.005
337.150	-0.005
337.200	-0.015
337.250	-0.005
337.300	-0.005
337.350	-0.015
337.400	-0.005
337.450	0.000
337.500	-0.005
337.550	0.000
337.600	-0.005
337.650	0.000
337.700	0.000
337.750	0.000
337.800	-0.010
337.850	-0.010
337.900	-0.015
337.950	0.000
338.000	0.005
338.050	0.005
338.100	0.005
338.150	0.005
338.200	-0.010
338.250	0.000
338.300	0.005
338.350	0.015
338.400	0.000
338.450	-0.005
338.500	0.000
338.550	0.000
338.600	-0.005
338.650	-0.005
338.700	0.000
338.750	0.000
338.800	0.005
338.850	0.000
338.900	0.000
338.950	0.005
339.000	0.005
339.050	0.000
339.100	0.000
339.150	-0.005
339.200	0.000
339.250	-0.005
339.300	-0.005
339.350	-0.015
339.400	0.000
339.450	0.005
339.500	0.000
339.550	0.010
339.600	-0.015
339.650	0.000
339.700	0.000
339.750	-0.005
339.800	0.000
339.850	-0.010
339.900	-0.005
339.950	-0.029
340.000	0.010
340.050	0.000
340.100	0.000
340.150	0.000
340.200	0.000
340.250	0.000
340.300	-0.015
340.350	0.015
340.400	0.000
340.450	0.005
340.500	0.010
340.550	0.000
340.600	0.010
340.650	0.000
340.700	0.005
340.750	0.000
340.800	0.005
340.850	0.010
340.900	-0.010
340.950	-0.010
341.000	0.000
341.050	-0.181
341.100	-0.044
341.150	0.000
341.200	-0.010
341.250	0.000
341.300	0.000
341.350	0.020
341.400	0.000
341.450	0.000
341.500	-0.005
341.550	0.000
341.600	-0.010
341.650	-0.015
341.700	-0.005
341.750	0.000
341.800	0.000
341.850	0.000
341.900	0.000
341.950	0.000
342.000	0.000
342.050	0.000
342.100	0.000
342.150	0.000
342.200	0.000
342.250	0.000
342.300	0.000
342.350	0.000
342.400	-0.005
342.450	0.000
342.500	0.000
342.550	0.000
342.600	0.000
342.650	-0.015
342.700	0.039
342.750	0.059
342.800	-0.044
342.850	0.000
342.900	0.000
342.950	0.000
343.000	0.000
343.050	0.000
343.100	0.000
343.150	0.000
343.200	0.000
343.250	0.000
343.300	0.000
343.350	0.000
343.400	0.000
343.450	0.000
343.500	0.000
343.550	0.000
343.600	0.005
343.650	0.000
343.700	0.000
343.750	0.000
343.800	0.000
343.850	0.005
343.900	0.005
343.950	0.000
344.000	0.000
344.050	0.000
344.100	0.000
344.150	0.000
344.200	0.000
344.250	0.000
344.300	0.000
344.350	0.000
344.400	-0.005
344.450	0.000
344.500	0.000
344.550	0.000
344.600	-0.010
344.650	0.005
344.700	0.010
344.750	0.000
344.800	-0.010
344.850	0.005
344.900	0.000
344.950	0.000
345.000	-0.015
345.050	0.000
345.100	-0.005
345.150	-0.005
345.200	-0.010
345.250	-0.015
345.300	0.005
345.350	0.005
345.400	0.000
345.450	0.005
345.500	0.000
345.550	-0.005
345.600	0.000
345.650	0.000
345.700	-0.181
345.750	0.005
345.800	0.015
345.850	0.000
345.900	0.000
345.950	0.000
346.000	-0.005
346.050	-0.005
346.100	-0.005
346.150	0.000
346.200	0.000
346.250	-0.005
346.300	0.000
346.350	0.000
346.400	0.005
346.450	0.020
346.500	0.000
346.550	-0.015
346.600	-0.005
346.650	0.000
346.700	-0.005
346.750	0.000
346.800	0.000
346.850	0.000
346.900	0.000
346.950	0.000
347.000	0.000
347.050	0.000
347.100	0.000
347.150	0.000
347.200	0.000
347.250	0.000
347.300	0.000
347.350	0.005
347.400	-0.215
347.450	-0.020
347.500	-0.029
347.550	-0.039
347.600	-0.010
347.650	-0.039
347.700	-0.034
347.750	-0.010
347.800	0.254
347.850	0.103
347.900	0.015
347.950	-0.005
348.000	0.000
348.050	0.000
348.100	0.000
348.150	0.000
348.200	0.000
348.250	0.000
348.300	0.000
348.350	0.000
348.400	0.000
348.450	0.000
348.500	0.000
348.550	0.000
348.600	-0.039
348.650	0.000
348.700	0.000
348.750	0.005
348.800	0.000
348.850	-0.010
348.900	0.000
348.950	0.005
349.000	0.000
349.050	-0.005
349.100	0.000
349.150	0.000
349.200	0.000
349.250	0.000
349.300	-0.020
349.350	0.000
349.400	-0.005
349.450	0.000
349.500	0.005
349.550	0.000
349.600	-0.005
349.650	0.000
349.700	0.000
349.750	0.000
349.800	0.000
349.850	0.000
349.900	0.000
349.950	0.000
350.000	0.000
350.050	0.010
350.100	-0.015
350.150	0.000
350.200	0.005
350.250	0.000
350.300	-0.005
350.350	0.000
350.400	0.000
350.450	0.000
350.500	0.005
350.550	-0.010
350.600	-0.005
350.650	0.005
350.700	0.000
350.750	-0.015
350.800	0.000
350.850	0.005
350.900	0.000
350.950	-0.010
351.000	0.000
351.050	0.000
351.100	0.000
351.150	0.015
351.200	0.000
351.250	0.000
351.300	0.000
351.350	0.000
351.400	0.000
351.450	0.005
351.500	0.005
351.550	0.024
351.600	0.000
351.650	-0.015
351.700	0.000
351.750	-0.015
351.800	0.000
351.850	0.000
351.900	-0.005
351.950	-0.005
352.000	-0.005
352.050	-0.010
352.100	0.000
352.150	-0.005
352.200	0.000
352.250	0.000
352.300	-0.005
352.350	0.000
352.400	0.000
352.450	0.000
352.500	0.005
352.550	0.000
352.600	0.000
352.650	0.000
352.700	0.000
352.750	0.000
352.800	0.000
352.850	0.000
352.900	-0.010
352.950	0.000
353.000	0.000
353.050	-0.005
353.100	0.000
353.150	0.000
353.200	0.000
353.250	-0.005
353.300	0.005
353.350	0.000
353.400	-0.010
353.450	0.000
353.500	-0.020
353.550	0.005
353.600	0.000
353.650	-0.005
353.700	0.000
353.750	0.000
353.800	0.000
353.850	0.000
353.900	0.000
353.950	0.000
354.000	0.000
354.050	0.000
354.100	0.000
354.150	0.000
354.200	0.000
354.250	0.000
354.300	0.000
354.350	0.000
354.400	0.000
354.450	0.000
354.500	0.000
354.550	0.000
354.600	0.000
354.650	0.000
354.700	0.000
354.750	0.000
354.800	0.000
354.850	0.000
354.900	0.000
354.950	0.010
355.000	0.000
355.050	0.000
355.100	-0.005
355.150	0.000
355.200	0.000
355.250	0.000
355.300	0.000
355.350	0.000
355.400	0.000
355.450	0.000
355.500	0.000
355.550	0.000
355.600	0.000
355.650	0.000
355.700	0.000
355.750	0.000
355.800	0.000
355.850	0.000
355.900	0.000
355.950	0.000
356.000	0.000
356.050	0.000
356.100	0.000
356.150	0.000
356.200	0.000
356.250	0.000
356.300	0.000
356.350	0.000
356.400	0.000
356.450	0.000
356.500	-0.029
356.550	0.000
356.600	-0.010
356.650	0.005
356.700	0.000
356.750	0.000
356.800	-0.005
356.850	0.000
356.900	0.000
356.950	0.005
357.000	-0.039
357.050	0.005
357.100	-0.010
357.150	-0.010
357.200	0.020
357.250	0.005
357.300	-0.005
357.350	0.000
357.400	0.005
357.450	0.005
357.500	-0.024
357.550	0.000
357.600	0.000
357.650	0.000
357.700	0.000
357.750	0.005
357.800	0.000
357.850	0.000
357.900	-0.020
357.950	0.000
358.000	0.000
358.050	0.000
358.100	0.000
358.150	-0.005
358.200	0.000
358.250	0.005
358.300	-0.005
358.350	0.005
358.400	-0.015
358.450	0.010
358.500	-0.005
358.550	-0.010
358.600	0.000
358.650	0.000
358.700	0.000
358.750	0.000
358.800	0.000
358.850	-0.015
358.900	0.020
358.950	0.005
359.000	-0.010
359.050	-0.005
359.100	0.020
359.150	-0.010
359.200	-0.015
359.250	-0.024
359.300	-0.015
359.350	-0.015
359.400	-0.015
359.450	-0.015
359.500	-0.015
359.550	-0.029
359.600	-0.015
359.650	0.000
359.700	-0.010
359.750	-0.020
359.800	-0.020
359.850	-0.015
359.900	0.010
359.950	0.000
360.000	0.005
360.050	0.005
360.100	0.000
360.150	0.005
360.200	0.000
360.250	0.000
360.300	0.000
360.350	0.000
360.400	0.000
360.450	-0.005
360.500	0.000
360.550	0.000
360.600	-0.005
360.650	0.010
360.700	-0.010
360.750	-0.020
360.800	0.000
360.850	0.000
360.900	0.000
360.950	-0.005
361.000	-0.010
361.050	-0.015
361.100	-0.010
361.150	0.005
361.200	0.000
361.250	0.005
361.300	0.020
361.350	0.000
361.400	0.000
361.450	0.000
361.500	0.000
361.550	-0.010
361.600	0.000
361.650	0.000
361.700	-0.010
361.750	0.000
361.800	0.005
361.850	0.005
361.900	0.005
361.950	0.000
362.000	0.000
362.050	-0.015
362.100	0.000
362.150	0.000
362.200	-0.044
362.250	0.000
362.300	0.000
362.350	0.000
362.400	-0.015
362.450	0.005
362.500	-0.024
362.550	-0.010
362.600	0.005
362.650	0.000
362.700	0.000
362.750	0.005
362.800	0.010
362.850	0.005
362.900	0.000
362.950	0.000
363.000	0.005
363.050	0.005
363.100	0.005
363.150	0.000
363.200	0.000
363.250	0.015
363.300	-0.010
363.350	-0.010
363.400	0.000
363.450	0.000
363.500	0.000
363.550	0.000
363.600	0.000
363.650	0.000
363.700	0.005
363.750	0.000
363.800	0.010
363.850	0.005
363.900	0.005
363.950	-0.005
364.000	-0.024
364.050	0.010
364.100	0.005
364.150	0.000
364.200	0.000
364.250	0.000
364.300	0.000
364.350	0.000
364.400	0.000
364.450	0.000
364.500	0.000
364.550	0.000
364.600	-0.010
364.650	0.000
364.700	0.005
364.750	0.000
364.800	-0.005
364.850	-0.015
364.900	-0.020
364.950	0.000
365.000	-0.010
365.050	-0.005
365.100	0.000
365.150	0.005
365.200	0.010
365.250	0.000
365.300	0.000
365.350	0.000
365.400	0.000
365.450	0.000
365.500	0.000
365.550	0.000
365.600	0.000
365.650	-0.010
365.700	-0.029
365.750	0.010
365.800	-0.020
365.850	0.000
365.900	0.000
365.950	-0.010
366.000	0.000
366.050	-0.005
366.100	0.000
366.150	0.000
366.200	0.005
366.250	0.005
366.300	0.005
366.350	0.000
366.400	0.000
366.450	0.010
366.500	0.000
366.550	0.000
366.600	0.000
366.650	0.005
366.700	0.000
366.750	0.000
366.800	0.020
366.850	0.010
366.900	0.010
366.950	0.000
367.000	-0.005
367.050	-0.015
367.100	-0.015
367.150	-0.039
367.200	0.005
367.250	0.015
367.300	0.010
367.350	0.000
367.400	-0.005
367.450	-0.005
367.500	0.000
367.550	-0.005
367.600	0.005
367.650	0.000
367.700	0.000
367.750	0.000
367.800	0.000
367.850	0.000
367.900	0.000
367.950	0.000
368.000	0.000
368.050	0.000
368.100	0.000
368.150	0.000
368.200	-0.005
368.250	-0.005
368.300	0.000
368.350	0.000
368.400	0.000
368.450	0.000
368.500	-0.039
368.550	-0.010
368.600	0.000
368.650	0.000
368.700	0.000
368.750	0.000
368.800	0.000
368.850	0.000
368.900	0.000
368.950	0.000
369.000	0.000
369.050	0.000
369.100	0.000
369.150	0.000
369.200	-0.127
369.250	0.044
369.300	0.005
369.350	0.000
369.400	0.000
369.450	-0.020
369.500	-0.024
369.550	0.020
369.600	0.024
369.650	0.000
369.700	0.000
369.750	0.010
369.800	-0.024
369.850	-0.068
369.900	-0.112
369.950	-0.010
370.000	0.361
370.050	0.005
370.100	0.005
370.150	0.000
370.200	-0.190
370.250	-0.039
370.300	0.020
370.350	0.000
370.400	-0.005
370.450	-0.005
370.500	0.000
370.550	0.142
370.600	0.010
370.650	0.000
370.700	0.000
370.750	0.000
370.800	-0.010
370.850	0.166
370.900	-0.015
370.950	-0.005
371.000	0.000
371.050	-0.010
371.100	0.000
371.150	0.000
371.200	0.937
371.250	0.010
371.300	0.005
371.350	0.000
371.400	0.000
371.450	0.000
371.500	0.000
371.550	-0.693
371.600	-0.059
371.650	0.020
371.700	-0.005
371.750	0.000
371.800	0.000
371.850	-0.005
371.900	0.000
371.950	0.273
372.000	0.000
372.050	0.000
372.100	0.000
372.150	0.000
372.200	0.000
372.250	-0.151
372.300	-0.137
372.350	-0.020
372.400	0.010
372.450	0.000
372.500	0.000
372.550	0.000
372.600	3.447
372.650	-0.059
372.700	0.024
372.750	0.005
372.800	0.000
372.850	0.000
372.900	-0.562
372.950	0.039
373.000	0.020
373.050	0.000
373.100	0.000
373.150	0.000
373.200	0.000
373.250	0.000
373.300	0.000
373.350	-1.792
373.400	0.005
373.450	0.005
373.500	0.000
373.550	0.000
373.600	0.000
373.650	0.000
373.700	-0.005
373.750	-0.015
373.800	-0.010
373.850	-0.015
373.900	0.024
373.950	0.015
374.000	0.000
374.050	0.000
374.100	0.000
374.150	-0.010
374.200	-0.630
374.250	-0.054
374.300	-0.371
374.350	0.049
374.400	0.000
374.450	0.000
374.500	-0.005
374.550	0.000
374.600	0.000
374.650	0.000
374.700	0.000
374.750	0.000
374.800	0.063
374.850	0.010
374.900	-0.005
374.950	0.000
375.000	0.000
375.050	0.000
375.100	-0.010
375.150	-0.010
375.200	-0.005
375.250	-0.005
375.300	0.000
375.350	-0.005
375.400	0.000
375.450	0.000
375.500	0.000
375.550	0.000
375.600	0.000
375.650	0.000
375.700	0.000
375.750	0.000
375.800	0.000
375.850	0.000
375.900	0.000
375.950	0.000
376.000	0.000
376.050	0.000
376.100	0.000
376.150	0.000
376.200	0.000
376.250	0.000
376.300	0.000
376.350	0.000
376.400	0.000
376.450	0.000
376.500	0.000
376.550	0.000
376.600	0.000
376.650	0.000
376.700	0.005
376.750	0.000
376.800	0.000
376.850	0.000
376.900	0.000
376.950	0.000
377.000	0.000
377.050	0.000
377.100	0.000
377.150	0.000
377.200	0.000
377.250	0.000
377.300	0.000
377.350	0.000
377.400	0.000
377.450	0.000
377.500	0.000
377.550	0.000
377.600	0.000
377.650	0.000
377.700	0.000
377.750	0.000
377.800	-0.005
377.850	0.000
377.900	0.000
377.950	-0.005
378.000	-0.005
378.050	0.000
378.100	0.000
378.150	-0.010
378.200	-0.010
378.250	0.000
378.300	-0.005
378.350	-0.005
378.400	0.015
378.450	0.000
378.500	-0.015
378.550	0.000
378.600	0.000
378.650	0.000
378.700	0.000
378.750	0.005
378.800	0.000
378.850	-0.132
378.900	0.078
378.950	-0.107
379.000	0.073
379.050	0.005
379.100	-0.005
379.150	0.000
379.200	0.000
379.250	0.000
379.300	0.000
379.350	0.000
379.400	-0.093
379.450	0.000
379.500	0.000
379.550	0.000
379.600	0.000
379.650	0.000
379.700	0.000
379.750	-0.005
379.800	-0.005
379.850	-0.010
379.900	-0.010
379.950	0.000
380.000	0.000
380.050	0.000
380.100	0.000
380.150	0.000
380.200	0.000
380.250	-0.005
380.300	0.000
380.350	0.005
380.400	0.005
380.450	0.000
380.500	0.000
380.550	0.000
380.600	0.000
380.650	-0.005
380.700	0.000
380.750	0.000
380.800	0.000
380.850	0.000
380.900	0.000
380.950	0.000
381.000	0.000
381.050	0.000
381.100	0.000
381.150	0.000
381.200	-0.005
381.250	-0.010
381.300	-0.020
381.350	-0.020
381.400	0.005
381.450	0.063
381.500	-0.010
381.550	0.000
381.600	0.000
381.650	0.000
381.700	0.000
381.750	0.000
381.800	0.000
381.850	0.005
381.900	0.000
381.950	-0.220
382.000	0.083
382.050	0.024
382.100	0.103
382.150	0.010
382.200	0.000
382.250	0.000
382.300	0.000
382.350	0.000
382.400	0.000
382.450	0.000
382.500	1.514
382.550	0.044
382.600	-0.005
382.650	0.000
382.700	0.000
382.750	0.000
382.800	0.000
382.850	0.000
382.900	-0.010
382.950	0.000
383.000	0.000
383.050	0.000
383.100	0.000
383.150	0.000
383.200	0.000
383.250	0.000
383.300	0.000
383.350	0.000
383.400	0.000
383.450	0.000
383.500	0.000
383.550	0.000
383.600	-0.005
383.650	0.000
383.700	-0.005
383.750	0.005
383.800	0.000
383.850	0.005
383.900	0.000
383.950	0.000
384.000	0.000
384.050	0.000
384.100	0.000
384.150	0.000
384.200	0.000
384.250	0.225
384.300	-0.273
384.350	-0.200
384.400	-0.039
384.450	0.020
384.500	0.000
384.550	-0.005
384.600	0.000
384.650	0.000
384.700	0.000
384.750	0.000
384.800	-1.636
384.850	0.000
384.900	0.010
384.950	0.000
385.000	0.000
385.050	0.000
385.100	0.000
385.150	0.000
385.200	-0.005
385.250	-0.010
385.300	0.000
385.350	0.000
385.400	0.000
385.450	0.000
385.500	0.000
385.550	0.000
385.600	0.000
385.650	0.000
385.700	0.000
385.750	0.000
385.800	0.000
385.850	0.000
385.900	0.000
385.950	0.000
386.000	0.000
386.050	0.000
386.100	0.000
386.150	0.000
386.200	0.000
386.250	0.000
386.300	0.000
386.350	0.000
386.400	-0.005
386.450	0.000
386.500	0.000
386.550	0.000
386.600	0.000
386.650	0.000
386.700	0.000
386.750	0.000
386.800	0.000
386.850	0.000
386.900	0.000
386.950	0.000
387.000	0.000
387.050	0.000
387.100	0.000
387.150	0.000
387.200	0.000
387.250	0.000
387.300	0.000
387.350	0.000
387.400	0.000
387.450	0.000
387.500	0.000
387.550	0.000
387.600	0.000
387.650	0.000
387.700	0.000
387.750	0.000
387.800	0.000
387.850	0.000
387.900	0.000
387.950	0.000
388.000	0.000
388.050	0.000
388.100	0.000
388.150	0.000
388.200	0.000
388.250	0.000
388.300	0.000
388.350	0.000
388.400	0.000
388.450	0.000
388.500	0.000
388.550	0.000
388.600	0.000
388.650	0.000
388.700	0.000
388.750	0.000
388.800	0.000
388.850	0.000
388.900	0.005
388.950	-0.005
389.000	0.024
389.050	-0.005
389.100	0.000
389.150	-0.005
389.200	0.000
389.250	0.000
389.300	0.000
389.350	0.000
389.400	0.000
389.450	0.000
389.500	0.000
389.550	0.000
389.600	0.000
389.650	0.000
389.700	0.000
389.750	0.000
389.800	-0.005
389.850	0.000
389.900	0.000
389.950	0.000
390.000	0.000
390.050	0.000
390.100	0.000
390.150	0.000
390.200	0.000
390.250	0.000
390.300	0.000
390.350	0.000
390.400	0.000
390.450	0.000
390.500	0.000
390.550	0.000
390.600	0.000
390.650	0.000
390.700	0.000
390.750	0.000
390.800	0.000
390.850	0.000
390.900	0.000
390.950	0.000
391.000	0.000
391.050	0.000
391.100	0.000
391.150	0.000
391.200	0.000
391.250	0.000
391.300	0.000
391.350	0.000
391.400	0.000
391.450	0.000
391.500	0.000
391.550	0.000
391.600	0.000
391.650	0.000
391.700	0.000
391.750	0.000
391.800	0.000
391.850	0.000
391.900	0.000
391.950	0.000
392.000	0.000
392.050	0.000
392.100	0.000
392.150	0.000
392.200	0.000
392.250	0.000
392.300	0.000
392.350	0.000
392.400	0.000
392.450	0.000
392.500	0.000
392.550	0.000
392.600	0.000
392.650	0.000
392.700	0.000
392.750	0.000
392.800	0.000
392.850	0.000
392.900	0.000
392.950	0.000
393.000	0.000
393.050	0.000
393.100	0.000
393.150	0.000
393.200	0.000
393.250	0.000
393.300	0.000
393.350	0.000
393.400	0.000
393.450	0.000
393.500	0.000
393.550	0.000
393.600	0.000
393.650	0.000
393.700	0.000
393.750	0.000
393.800	0.000
393.850	0.000
393.900	0.000
393.950	0.000
394.000	0.000
394.050	0.000
394.100	0.000
394.150	0.000
394.200	0.000
394.250	0.000
394.300	0.000
394.350	0.000
394.400	0.000
394.450	0.000
394.500	0.000
394.550	0.000
394.600	0.000
394.650	0.000
394.700	0.000
394.750	0.000
394.800	0.000
394.850	0.000
394.900	0.000
394.950	0.000
395.000	-0.005
395.050	0.000
395.100	0.000
395.150	0.000
395.200	0.000
395.250	0.000
395.300	0.000
395.350	-0.005
395.400	0.000
395.450	0.000
395.500	-0.010
395.550	0.010
395.600	-0.005
395.650	0.000
395.700	0.000
395.750	0.000
395.800	0.000
395.850	0.000
395.900	0.000
395.950	0.000
396.000	0.000
396.050	0.000
396.100	0.000
396.150	0.000
396.200	0.000
396.250	0.000
396.300	0.000
396.350	0.000
396.400	0.000
396.450	0.000
396.500	0.000
396.550	0.000
396.600	0.020
396.650	0.000
396.700	-0.005
396.750	0.000
396.800	0.000
396.850	0.000
396.900	0.000
396.950	0.000
397.000	0.000
397.050	0.010
397.100	0.015
397.150	0.063
397.200	0.005
397.250	0.000
397.300	0.000
397.350	-0.005
397.400	-0.005
397.450	-0.005
397.500	0.000
397.550	0.000
397.600	0.000
397.650	0.020
397.700	0.000
397.750	0.005
397.800	0.005
397.850	0.005
397.900	0.000
397.950	-0.005
398.000	0.000
398.050	0.000
398.100	0.000
398.150	0.000
398.200	0.010
398.250	0.005
398.300	0.000
398.350	-0.010
398.400	0.000
398.450	0.000
398.500	0.000
398.550	0.000
398.600	0.000
398.650	0.000
398.700	0.000
398.750	0.000
398.800	-0.005
398.850	0.000
398.900	-0.005
398.950	0.000
399.000	0.000
399.050	0.000
399.100	0.000
399.150	-0.005
399.200	0.000
399.250	0.000
399.300	0.000
399.350	0.000
399.400	-0.005
399.450	0.000
399.500	0.000
399.550	0.000
399.600	0.010
399.650	0.024
399.700	-0.005
399.750	0.000
399.800	0.000
399.850	0.000
399.900	-0.005
399.950	-0.010
400.000	0.000
400.050	-0.010
400.100	-0.029
400.150	-0.020
400.200	0.000
400.250	0.000
400.300	-0.020
400.350	-0.024
400.400	-0.005
400.450	0.000
400.500	-0.015
400.550	0.000
400.600	0.010
400.650	-0.020
400.700	-0.010
400.750	-0.015
400.800	-0.005
400.850	-0.010
400.900	0.005
400.950	0.010
401.000	0.000
401.050	-0.010
401.100	0.000
401.150	0.005
401.200	0.005
401.250	0.000
401.300	-0.015
401.350	-0.015
401.400	-0.005
401.450	0.020
401.500	0.000
401.550	0.000
401.600	0.000
401.650	-0.005
401.700	0.000
401.750	-0.010
401.800	-0.010
401.850	-0.020
401.900	-0.029
401.950	-0.010
402.000	0.005
402.050	-0.005
402.100	-0.156
402.150	-0.044
402.200	0.044
402.250	0.010
402.300	0.005
402.350	-0.005
402.400	0.010
402.450	-0.005
402.500	-0.020
402.550	0.005
402.600	-0.034
402.650	-0.010
402.700	-0.005
402.750	0.020
402.800	-0.015
402.850	0.024
402.900	0.000
402.950	0.005
403.000	0.000
403.050	-0.010
403.100	0.000
403.150	-0.034
403.200	0.000
403.250	0.000
403.300	0.083
403.350	0.020
403.400	-0.020
403.450	-0.010
403.500	0.010
403.550	0.029
403.600	0.005
403.650	-0.010
403.700	0.000
403.750	0.000
403.800	0.000
403.850	-0.015
403.900	-0.020
403.950	0.000
404.000	-0.005
404.050	0.005
404.100	-0.063
404.150	0.005
404.200	0.010
404.250	0.015
404.300	0.005
404.350	0.005
404.400	0.000
404.450	-0.195
404.500	0.083
404.550	0.015
404.600	-0.015
404.650	-0.049
404.700	-0.010
404.750	-0.024
404.800	-0.010
404.850	-0.010
404.900	-0.015
404.950	0.005
405.000	0.010
405.050	0.000
405.100	0.000
405.150	-0.005
405.200	0.000
405.250	-0.010
405.300	-0.010
405.350	-0.034
405.400	-0.010
405.450	-0.010
405.500	-0.005
405.550	0.000
405.600	0.000
405.650	0.000
405.700	0.000
405.750	-0.010
405.800	0.000
405.850	0.000
405.900	0.000
405.950	0.005
406.000	-0.059
406.050	-0.029
406.100	0.010
406.150	0.024
406.200	0.044
406.250	0.029
406.300	0.059
406.350	0.044
406.400	0.000
406.450	0.020
406.500	0.024
406.550	0.020
406.600	0.005
406.650	0.000
406.700	0.000
406.750	0.000
406.800	0.000
406.850	0.000
406.900	-0.005
406.950	0.000
407.000	-0.015
407.050	-0.015
407.100	-0.005
407.150	-0.010
407.200	0.000
407.250	-0.010
407.300	-0.020
407.350	-0.010
407.400	-0.010
407.450	-0.005
407.500	-0.010
407.550	-0.010
407.600	-0.005
407.650	-0.010
407.700	0.000
407.750	0.000
407.800	-0.039
407.850	0.005
407.900	-0.024
407.950	-0.015
408.000	-0.010
408.050	-0.010
408.100	-0.010
408.150	-0.024
408.200	0.000
408.250	0.000
408.300	0.000
408.350	0.000
408.400	0.000
408.450	0.000
408.500	0.000
408.550	-0.020
408.600	-0.015
408.650	0.000
408.700	-0.010
408.750	0.000
408.800	0.000
408.850	0.000
408.900	0.000
408.950	0.000
409.000	0.000
409.050	0.000
409.100	0.000
409.150	0.000
409.200	0.000
409.250	0.005
409.300	-0.005
409.350	0.000
409.400	-0.005
409.450	0.000
409.500	0.000
409.550	0.000
409.600	0.000
409.650	0.000
409.700	0.000
409.750	0.000
409.800	0.000
409.850	0.000
409.900	0.000
409.950	0.063
410.000	0.034
410.050	0.093
410.100	0.029
410.150	0.010
410.200	-0.024
410.250	-0.029
410.300	-0.010
410.350	-0.015
410.400	-0.088
410.450	-0.010
410.500	0.098
410.550	0.034
410.600	0.005
410.650	0.000
410.700	0.000
410.750	-0.562
410.800	-0.024
410.850	-0.034
410.900	-0.044
410.950	0.005
411.000	0.005
411.050	-0.005
411.100	0.000
411.150	0.000
411.200	-0.020
411.250	-0.020
411.300	0.000
411.350	0.000
411.400	-0.005
411.450	-0.054
411.500	-0.039
411.550	-0.010
411.600	-0.015
411.650	0.005
411.700	-0.059
411.750	-0.044
411.800	0.015
411.850	0.176
411.900	0.005
411.950	0.005
412.000	0.000
412.050	0.005
412.100	-0.005
412.150	1.045
412.200	0.332
412.250	0.010
412.300	0.034
412.350	0.000
412.400	0.000
412.450	-0.005
412.500	0.000
412.550	0.000
412.600	0.000
412.650	4.170
412.700	0.005
412.750	-0.020
412.800	0.000
412.850	0.000
412.900	0.000
412.950	0.000
413.000	-0.034
413.050	-0.059
413.100	0.005
413.150	-0.010
413.200	-0.020
413.250	-0.010
413.300	-0.059
413.350	-0.044
413.400	0.107
413.450	0.044
413.500	0.005
413.550	0.005
413.600	0.000
413.650	0.000
413.700	-0.547
413.750	0.146
413.800	-0.200
413.850	-0.029
413.900	-0.005
413.950	0.000
414.000	0.000
414.050	0.000
414.100	0.000
414.150	0.000
414.200	0.000
414.250	-0.029
414.300	-0.010
414.350	0.000
414.400	0.000
414.450	0.000
414.500	0.000
414.550	0.000
414.600	-0.005
414.650	-0.010
414.700	-0.015
414.750	-0.010
414.800	-0.005
414.850	0.000
414.900	0.015
414.950	0.015
415.000	-0.005
415.050	-0.005
415.100	0.000
415.150	0.000
415.200	-0.005
415.250	0.000
415.300	0.000
415.350	0.000
415.400	-0.005
415.450	0.000
415.500	0.000
415.550	-0.005
415.600	0.000
415.650	0.000
415.700	0.000
415.750	0.000
415.800	0.000
415.850	-0.005
415.900	0.000
415.950	0.000
416.000	-0.005
416.050	0.000
416.100	-0.005
416.150	0.000
416.200	0.000
416.250	-0.005
416.300	-0.005
416.350	-0.020
416.400	-0.103
416.450	-0.039
416.500	0.151
416.550	0.024
416.600	0.000
416.650	0.000
416.700	0.005
416.750	0.000
416.800	-0.029
416.850	-0.400
416.900	-0.024
416.950	-0.015
417.000	0.015
417.050	0.005
417.100	0.000
417.150	0.000
417.200	0.000
417.250	0.000
417.300	-0.640
417.350	0.063
417.400	0.000
417.450	0.000
417.500	0.000
417.550	-0.005
417.600	-0.034
417.650	-0.015
417.700	0.000
417.750	0.000
417.800	-0.010
417.850	-0.024
417.900	-0.005
417.950	0.039
418.000	0.024
418.050	0.000
418.100	0.005
418.150	0.000
418.200	0.005
418.250	-0.005
418.300	1.050
418.350	0.273
418.400	-0.049
418.450	0.015
418.500	-0.015
418.550	0.000
418.600	0.000
418.650	0.000
418.700	0.000
418.750	0.000
418.800	-0.249
418.850	0.034
418.900	0.000
418.950	0.000
419.000	0.000
419.050	0.000
419.100	0.000
419.150	0.000
419.200	0.000
419.250	-0.010
419.300	-0.010
419.350	-0.005
419.400	-0.005
419.450	0.000
419.500	0.005
419.550	0.000
419.600	0.000
419.650	0.000
419.700	0.000
419.750	0.000
419.800	0.000
419.850	0.000
419.900	0.000
419.950	0.000
420.000	0.000
420.050	-0.010
420.100	-0.024
420.150	-0.049
420.200	0.000
420.250	-0.024
420.300	0.000
420.350	0.000
420.400	0.000
420.450	0.000
420.500	0.000
420.550	0.000
420.600	0.000
420.650	0.000
420.700	0.000
420.750	0.000
420.800	0.000
420.850	0.000
420.900	-0.005
420.950	0.000
421.000	0.015
421.050	0.015
421.100	0.015
421.150	0.015
421.200	0.010
421.250	0.005
421.300	0.000
421.350	0.000
421.400	0.000
421.450	0.000
421.500	0.000
421.550	0.000
421.600	0.000
421.650	0.000
421.700	0.000
421.750	0.000
421.800	0.000
421.850	0.000
421.900	0.000
421.950	-0.010
422.000	0.000
422.050	-0.005
422.100	-0.005
422.150	0.005
422.200	0.000
422.250	-0.010
422.300	0.000
422.350	0.000
422.400	-0.005
422.450	0.000
422.500	0.000
422.550	0.000
422.600	-0.005
422.650	0.000
422.700	0.005
422.750	0.000
422.800	-0.005
422.850	0.000
422.900	0.000
422.950	-0.010
423.000	-0.010
423.050	-0.015
423.100	-0.015
423.150	0.020
423.200	0.005
423.250	0.024
423.300	0.000
423.350	0.000
423.400	0.000
423.450	0.000
423.500	0.000
423.550	-0.278
423.600	-0.054
423.650	0.020
423.700	0.010
423.750	-0.010
423.800	0.000
423.850	0.000
423.900	0.000
423.950	0.000
424.000	0.000
424.050	0.039
424.100	0.020
424.150	-0.015
424.200	0.000
424.250	-0.010
424.300	-0.010
424.350	-0.005
424.400	-0.010
424.450	0.000
424.500	0.000
424.550	0.000
424.600	0.000
424.650	0.000
424.700	0.005
424.750	0.000
424.800	0.005
424.850	0.000
424.900	0.000
424.950	0.000
425.000	-0.010
425.050	-0.015
425.100	-0.015
425.150	0.005
425.200	0.000
425.250	0.000
425.300	0.000
425.350	0.005
425.400	0.000
425.450	-0.034
425.500	0.034
425.550	0.020
425.600	-0.020
425.650	-0.005
425.700	0.000
425.750	0.000
425.800	0.000
425.850	0.000
425.900	0.000
425.950	0.000
426.000	0.063
426.050	-0.029
426.100	0.000
426.150	0.000
426.200	0.000
426.250	0.000
426.300	-0.005
426.350	-0.010
426.400	-0.010
426.450	0.000
426.500	0.000
426.550	0.000
426.600	0.000
426.650	0.000
426.700	0.000
426.750	0.000
426.800	0.000
426.850	0.000
426.900	0.000
426.950	-0.005
427.000	0.000
427.050	0.000
427.100	0.000
427.150	0.000
427.200	0.000
427.250	0.000
427.300	0.000
427.350	0.000
427.400	0.000
427.450	0.000
427.500	0.000
427.550	0.000
427.600	0.000
427.650	0.000
427.700	0.000
427.750	-0.005
427.800	0.000
427.850	0.000
427.900	0.000
427.950	0.000
428.000	-0.005
428.050	0.000
428.100	0.000
428.150	-0.010
428.200	0.000
428.250	0.000
428.300	-0.005
428.350	0.000
428.400	0.000
428.450	0.000
428.500	0.000
428.550	0.000
428.600	0.000
428.650	0.000
428.700	0.000
428.750	0.000
428.800	0.000
428.850	0.000
428.900	0.000
428.950	0.000
429.000	0.000
429.050	0.000
429.100	0.000
429.150	-0.005
429.200	0.000
429.250	0.000
429.300	-0.005
429.350	-0.015
429.400	0.015
429.450	0.000
429.500	0.000
429.550	0.000
429.600	0.000
429.650	0.000
429.700	-0.010
429.750	0.684
429.800	0.410
429.850	0.059
429.900	-0.054
429.950	0.000
430.000	0.000
430.050	0.000
430.100	0.000
430.150	0.000
430.200	0.000
430.250	0.000
430.300	-0.005
430.350	-0.005
430.400	0.000
430.450	0.000
430.500	0.000
430.550	-0.005
430.600	-0.005
430.650	-0.015
430.700	-0.010
430.750	-0.005
430.800	0.000
430.850	0.005
430.900	0.000
430.950	0.000
431.000	0.000
431.050	-0.005
431.100	0.010
431.150	-0.005
431.200	-0.005
431.250	0.015
431.300	0.000
431.350	0.000
431.400	0.000
431.450	0.000
431.500	0.000
431.550	0.000
431.600	0.000
431.650	-0.024
431.700	-0.020
431.750	-0.610
431.800	0.020
431.850	-0.054
431.900	0.024
431.950	0.000
432.000	0.000
432.050	0.000
432.100	0.000
432.150	0.000
432.200	0.000
432.250	0.000
432.300	0.151
432.350	0.000
432.400	0.000
432.450	-0.005
432.500	0.000
432.550	-0.005
432.600	-0.010
432.650	-0.015
432.700	0.000
432.750	-0.005
432.800	0.000
432.850	0.000
432.900	0.000
432.950	0.000
433.000	0.005
433.050	0.000
433.100	0.005
433.150	-0.005
433.200	0.000
433.250	0.000
433.300	0.000
433.350	0.000
433.400	0.000
433.450	0.000
433.500	0.000
433.550	0.000
433.600	0.000
433.650	0.000
433.700	0.000
433.750	0.000
433.800	0.000
433.850	0.000
433.900	0.005
433.950	0.000
434.000	-0.005
434.050	0.000
434.100	0.005
434.150	0.000
434.200	0.000
434.250	0.000
434.300	0.000
434.350	0.000
434.400	0.000
434.450	0.000
434.500	0.000
434.550	0.000
434.600	0.000
434.650	0.000
434.700	0.000
434.750	-0.005
434.800	0.000
434.850	0.000
434.900	0.000
434.950	0.000
435.000	0.010
435.050	0.024
435.100	-0.005
435.150	0.000
435.200	0.000
435.250	0.000
435.300	0.000
435.350	0.000
435.400	0.000
435.450	0.000
435.500	0.000
435.550	0.000
435.600	0.000
435.650	0.000
435.700	0.000
435.750	0.000
435.800	0.000
435.850	-0.005
435.900	0.000
435.950	0.000
436.000	0.000
436.050	0.000
436.100	0.000
436.150	0.000
436.200	0.000
436.250	0.000
436.300	0.000
436.350	0.000
436.400	0.000
436.450	0.000
436.500	0.000
436.550	-0.005
436.600	0.000
436.650	0.000
436.700	0.000
436.750	0.000
436.800	0.000
436.850	0.000
436.900	0.000
436.950	0.000
437.000	0.000
437.050	0.000
437.100	0.000
437.150	0.000
437.200	0.000
437.250	0.000
437.300	0.000
437.350	0.000
437.400	0.000
437.450	0.000
437.500	0.000
437.550	0.000
437.600	0.000
437.650	0.000
437.700	0.000
437.750	0.000
437.800	0.000
437.850	0.000
437.900	0.000
437.950	0.000
438.000	0.000
438.050	0.000
438.100	0.000
438.150	0.000
438.200	0.000
438.250	0.000
438.300	0.000
438.350	0.000
438.400	0.000
438.450	0.000
438.500	0.000
438.550	0.000
438.600	0.000
438.650	0.000
438.700	0.000
438.750	0.000
438.800	0.000
438.850	0.000
438.900	0.000
438.950	0.000
439.000	0.000
439.050	0.000
439.100	0.000
439.150	0.000
439.200	0.000
439.250	0.000
439.300	0.000
439.350	0.000
439.400	0.000
439.450	0.000
439.500	0.000
439.550	0.000
439.600	0.000
439.650	0.000
439.700	0.000
439.750	0.000
439.800	0.000
439.850	0.000
439.900	0.000
439.950	0.000
440.000	0.000
440.050	0.000
440.100	0.000
440.150	0.000
440.200	0.000
440.250	0.000
440.300	0.000
440.350	-0.005
440.400	0.000
440.450	0.000
440.500	0.000
440.550	0.000
440.600	0.000
440.650	0.000
440.700	0.000
440.750	0.000
440.800	0.000
440.850	0.000
440.900	0.000
440.950	0.000
441.000	0.000
441.050	0.000
441.100	0.000
441.150	0.000
441.200	0.000
441.250	0.000
441.300	0.000
441.350	0.000
441.400	0.000
441.450	0.000
441.500	0.000
441.550	0.000
441.600	0.000
